Wavelength (nm) 	 Efficiency Div Wav 1 (%) 	 Efficiency Div Wav 2 (%) 	 Efficiency Div Wav total (%) 	 Jsc Div Wav 1 (A m^-2) 	 Jsc Div Wav 2 (A m^-2) 	 Jsc Div Wav total (A m^-2) 	 EQE Curve 1 (%) 	 EQE Curve 2 (%) 	Jsc 1 correction factor: 0.12112841760658835	Jsc 2 correction factor: 0.11138078088588836
400	0.000	11.892	11.892	0.000	241.850	241.850	10.421	25.882
401	0.001	11.888	11.889	0.034	241.772	241.806	11.198	28.075
402	0.002	11.884	11.886	0.073	241.683	241.756	11.252	28.702
403	0.003	11.879	11.883	0.113	241.588	241.701	11.118	28.444
404	0.005	11.875	11.879	0.151	241.497	241.648	10.934	27.922
405	0.006	11.870	11.876	0.190	241.406	241.596	11.031	27.980
406	0.007	11.866	11.873	0.229	241.316	241.545	11.121	28.449
407	0.008	11.861	11.870	0.266	241.227	241.494	11.520	29.270
408	0.009	11.857	11.866	0.305	241.137	241.442	11.689	29.922
409	0.011	11.852	11.863	0.346	241.040	241.387	11.936	30.587
410	0.012	11.847	11.859	0.391	240.933	241.325	11.984	30.901
411	0.013	11.842	11.856	0.430	240.841	241.271	12.091	31.634
412	0.014	11.837	11.852	0.474	240.735	241.209	12.294	32.048
413	0.016	11.832	11.848	0.522	240.620	241.142	12.286	32.007
414	0.017	11.826	11.843	0.568	240.510	241.078	12.373	32.555
415	0.019	11.821	11.839	0.614	240.399	241.013	12.543	32.540
416	0.020	11.815	11.835	0.663	240.283	240.945	12.745	33.401
417	0.022	11.809	11.831	0.713	240.160	240.874	13.098	33.853
418	0.023	11.803	11.826	0.764	240.038	240.802	12.912	34.349
419	0.025	11.797	11.822	0.813	239.919	240.731	13.023	34.766
420	0.026	11.791	11.817	0.864	239.793	240.656	12.797	34.381
421	0.028	11.785	11.813	0.910	239.678	240.588	12.873	34.505
422	0.029	11.779	11.808	0.963	239.547	240.510	13.136	35.146
423	0.031	11.772	11.803	1.016	239.414	240.430	13.238	35.410
424	0.033	11.766	11.799	1.070	239.284	240.353	13.215	36.157
425	0.034	11.759	11.794	1.122	239.151	240.273	13.106	35.648
426	0.036	11.753	11.789	1.176	239.016	240.193	13.488	36.716
427	0.038	11.746	11.784	1.231	238.881	240.111	13.509	37.390
428	0.039	11.739	11.779	1.284	238.746	240.030	13.529	37.327
429	0.041	11.733	11.774	1.337	238.610	239.947	13.177	36.953
430	0.042	11.727	11.769	1.386	238.485	239.871	13.420	37.920
431	0.044	11.722	11.765	1.426	238.383	239.808	14.214	39.838
432	0.045	11.717	11.761	1.464	238.285	239.749	14.112	39.411
433	0.047	11.709	11.755	1.527	238.122	239.650	14.148	39.568
434	0.048	11.701	11.750	1.587	237.969	239.556	14.036	39.555
435	0.050	11.694	11.744	1.641	237.828	239.469	14.361	40.958
436	0.052	11.686	11.738	1.703	237.667	239.370	14.384	40.583
437	0.054	11.678	11.732	1.771	237.491	239.261	14.156	40.129
438	0.056	11.669	11.725	1.839	237.312	239.151	14.590	41.610
439	0.058	11.661	11.719	1.901	237.150	239.050	14.996	43.323
440	0.060	11.653	11.713	1.962	236.986	238.948	15.210	42.659
441	0.062	11.644	11.706	2.034	236.800	238.834	14.774	42.684
442	0.064	11.635	11.699	2.103	236.616	238.719	15.075	41.932
443	0.067	11.625	11.692	2.178	236.424	238.601	15.671	44.440
444	0.069	11.615	11.684	2.258	236.215	238.473	15.582	44.982
445	0.071	11.605	11.676	2.335	236.009	238.345	15.434	45.099
446	0.074	11.594	11.668	2.415	235.793	238.208	15.747	45.522
447	0.076	11.585	11.661	2.489	235.596	238.085	15.879	46.117
448	0.079	11.573	11.652	2.574	235.369	237.943	16.291	47.116
449	0.081	11.562	11.643	2.662	235.134	237.796	16.568	46.230
450	0.084	11.550	11.634	2.752	234.902	237.654	16.868	48.360
451	0.087	11.538	11.625	2.848	234.650	237.498	16.499	46.062
452	0.090	11.526	11.616	2.945	234.401	237.345	16.358	44.720
453	0.093	11.514	11.607	3.037	234.168	237.205	17.054	46.914
454	0.096	11.503	11.599	3.126	233.941	237.067	17.666	48.121
455	0.099	11.491	11.589	3.226	233.691	236.917	18.334	49.593
456	0.102	11.478	11.580	3.329	233.434	236.763	18.782	49.802
457	0.105	11.465	11.570	3.438	233.167	236.604	18.927	50.552
458	0.108	11.452	11.560	3.549	232.893	236.442	18.843	50.156
459	0.112	11.438	11.550	3.658	232.627	236.285	19.011	49.848
460	0.115	11.425	11.541	3.768	232.361	236.130	19.269	50.941
461	0.119	11.412	11.531	3.879	232.092	235.970	19.750	52.219
462	0.122	11.398	11.520	3.997	231.805	235.802	19.645	51.178
463	0.126	11.384	11.510	4.116	231.519	235.635	19.985	51.045
464	0.130	11.370	11.500	4.238	231.233	235.471	20.150	50.024
465	0.133	11.357	11.490	4.358	230.960	235.319	19.956	49.587
466	0.137	11.343	11.480	4.476	230.693	235.169	20.273	49.956
467	0.141	11.330	11.470	4.598	230.417	235.015	20.655	50.814
468	0.144	11.317	11.461	4.717	230.148	234.865	20.751	50.463
469	0.148	11.303	11.451	4.842	229.869	234.710	21.019	50.844
470	0.152	11.289	11.441	4.969	229.586	234.555	21.719	52.734
471	0.156	11.275	11.431	5.096	229.303	234.399	21.411	51.704
472	0.160	11.261	11.421	5.224	229.019	234.243	20.650	49.099
473	0.164	11.247	11.411	5.355	228.734	234.089	22.252	52.777
474	0.168	11.233	11.400	5.490	228.440	233.929	23.050	54.510
475	0.172	11.217	11.390	5.631	228.131	233.762	22.166	52.453
476	0.176	11.202	11.379	5.773	227.823	233.596	22.259	52.008
477	0.181	11.188	11.368	5.911	227.526	233.437	23.121	54.208
478	0.185	11.172	11.357	6.055	227.216	233.271	22.959	54.315
479	0.190	11.157	11.346	6.203	226.894	233.097	23.152	54.450
480	0.194	11.141	11.335	6.351	226.575	232.926	23.004	52.704
481	0.199	11.125	11.324	6.500	226.261	232.761	22.464	51.290
482	0.203	11.110	11.314	6.645	225.955	232.600	23.210	53.327
483	0.208	11.095	11.302	6.797	225.634	232.431	23.939	54.635
484	0.212	11.079	11.291	6.952	225.309	232.260	23.911	54.498
485	0.217	11.063	11.280	7.104	224.989	232.093	24.354	54.936
486	0.222	11.047	11.269	7.260	224.666	231.927	24.565	55.336
487	0.226	11.034	11.260	7.388	224.403	231.791	25.264	56.275
488	0.230	11.019	11.250	7.534	224.103	231.637	26.276	59.903
489	0.235	11.002	11.238	7.701	223.753	231.454	26.960	60.993
490	0.240	10.986	11.226	7.862	223.418	231.280	27.247	61.333
491	0.246	10.967	11.213	8.045	223.040	231.085	27.751	61.571
492	0.251	10.949	11.201	8.223	222.676	230.899	28.064	63.288
493	0.257	10.932	11.188	8.397	222.318	230.715	28.371	64.228
494	0.262	10.912	11.175	8.584	221.928	230.513	28.488	63.831
495	0.268	10.894	11.162	8.768	221.549	230.317	29.319	64.226
496	0.274	10.874	11.148	8.970	221.143	230.113	29.516	64.141
497	0.280	10.855	11.135	9.162	220.758	229.920	28.621	62.588
498	0.286	10.836	11.122	9.354	220.372	229.726	28.533	62.805
499	0.292	10.817	11.109	9.540	219.996	229.536	30.312	65.814
500	0.298	10.798	11.096	9.738	219.601	229.338	31.042	67.746
501	0.304	10.778	11.082	9.941	219.193	229.134	30.651	67.079
502	0.310	10.759	11.068	10.136	218.801	228.937	31.156	67.476
503	0.316	10.739	11.055	10.335	218.405	228.740	32.698	70.280
504	0.323	10.718	11.040	10.553	217.973	228.526	32.800	70.368
505	0.329	10.698	11.027	10.757	217.569	228.326	30.795	66.776
506	0.335	10.678	11.013	10.965	217.157	228.121	31.733	67.439
507	0.342	10.656	10.998	11.187	216.721	227.909	32.255	69.091
508	0.348	10.636	10.984	11.403	216.297	227.700	30.647	65.154
509	0.355	10.616	10.971	11.604	215.905	227.509	30.423	62.752
510	0.361	10.597	10.958	11.815	215.506	227.321	30.588	63.499
511	0.367	10.577	10.945	12.021	215.113	227.134	29.677	60.921
512	0.374	10.558	10.932	12.225	214.728	226.953	32.281	65.638
513	0.381	10.537	10.918	12.453	214.302	226.755	33.308	67.496
514	0.387	10.517	10.905	12.675	213.889	226.564	32.592	65.457
515	0.394	10.498	10.892	12.888	213.496	226.384	34.579	69.514
516	0.401	10.477	10.878	13.121	213.065	226.185	35.125	69.791
517	0.408	10.455	10.863	13.359	212.628	225.987	35.226	70.198
518	0.414	10.438	10.852	13.555	212.269	225.825	37.230	75.224
519	0.422	10.416	10.837	13.793	211.828	225.621	36.216	71.775
520	0.428	10.396	10.824	14.017	211.420	225.437	36.776	71.919
521	0.436	10.374	10.810	14.265	210.973	225.238	36.838	72.369
522	0.444	10.351	10.795	14.518	210.516	225.035	35.909	70.448
523	0.451	10.329	10.780	14.772	210.061	224.832	37.676	72.853
524	0.459	10.307	10.766	15.022	209.616	224.639	37.659	71.886
525	0.467	10.284	10.751	15.292	209.143	224.435	36.756	70.308
526	0.475	10.261	10.736	15.554	208.682	224.236	38.079	71.825
527	0.483	10.239	10.722	15.818	208.224	224.042	38.884	73.579
528	0.491	10.218	10.709	16.054	207.813	223.868	39.712	74.665
529	0.499	10.195	10.694	16.331	207.335	223.666	39.380	73.905
530	0.508	10.171	10.678	16.618	206.840	223.457	39.702	74.095
531	0.516	10.147	10.663	16.897	206.360	223.257	39.486	73.692
532	0.525	10.122	10.648	17.191	205.857	223.048	39.997	73.062
533	0.534	10.098	10.632	17.484	205.365	222.849	40.401	73.909
534	0.542	10.076	10.619	17.749	204.919	222.668	40.644	73.986
535	0.551	10.053	10.604	18.035	204.441	222.475	41.847	75.755
536	0.560	10.028	10.588	18.334	203.942	222.276	40.862	73.891
537	0.570	10.003	10.573	18.640	203.433	222.073	41.868	75.907
538	0.579	9.979	10.558	18.930	202.949	221.879	43.223	77.876
539	0.588	9.953	10.542	19.246	202.426	221.672	43.281	77.185
540	0.598	9.929	10.526	19.556	201.918	221.474	43.895	78.258
541	0.607	9.904	10.511	19.859	201.421	221.280	44.748	78.891
542	0.616	9.880	10.496	20.157	200.938	221.095	45.846	81.975
543	0.626	9.853	10.480	20.490	200.391	220.881	47.120	83.336
544	0.637	9.826	10.463	20.828	199.842	220.670	47.268	82.318
545	0.647	9.799	10.446	21.179	199.278	220.457	46.087	80.901
546	0.658	9.772	10.430	21.516	198.736	220.252	46.843	80.509
547	0.668	9.746	10.414	21.853	198.202	220.055	46.944	80.616
548	0.678	9.719	10.397	22.197	197.660	219.856	47.520	82.190
549	0.689	9.693	10.381	22.535	197.122	219.656	48.774	83.384
550	0.700	9.665	10.365	22.896	196.555	219.450	49.198	84.261
551	0.711	9.637	10.348	23.255	195.989	219.244	50.096	85.188
552	0.722	9.609	10.331	23.622	195.415	219.038	50.089	84.940
553	0.733	9.580	10.313	23.998	194.829	218.827	51.195	87.058
554	0.745	9.551	10.296	24.371	194.246	218.617	49.637	83.263
555	0.756	9.523	10.279	24.742	193.674	218.416	49.533	83.104
556	0.768	9.495	10.262	25.115	193.099	218.213	49.416	82.657
557	0.779	9.467	10.246	25.483	192.533	218.016	49.701	83.355
558	0.790	9.440	10.230	25.843	191.978	217.821	51.483	86.386
559	0.801	9.411	10.212	26.224	191.389	217.613	51.627	84.672
560	0.813	9.384	10.196	26.588	190.841	217.429	52.230	86.949
561	0.824	9.356	10.180	26.962	190.268	217.230	52.569	87.921
562	0.836	9.325	10.162	27.363	189.653	217.015	51.352	84.678
563	0.848	9.298	10.145	27.735	189.088	216.823	51.817	84.953
564	0.860	9.269	10.128	28.125	188.500	216.625	53.472	87.884
565	0.872	9.239	10.111	28.522	187.898	216.420	53.330	88.335
566	0.884	9.209	10.093	28.922	187.289	216.211	56.298	92.769
567	0.896	9.180	10.076	29.320	186.685	216.006	56.777	92.029
568	0.909	9.148	10.057	29.752	186.043	215.794	56.837	91.720
569	0.922	9.117	10.039	30.180	185.407	215.587	55.911	90.231
570	0.935	9.087	10.022	30.591	184.797	215.388	54.858	89.401
571	0.947	9.057	10.004	30.994	184.194	215.188	56.318	91.737
572	0.960	9.027	9.987	31.396	183.591	214.988	56.193	90.581
573	0.972	8.996	9.969	31.820	182.963	214.783	57.835	94.074
574	0.986	8.964	9.950	32.260	182.305	214.565	60.139	96.333
575	1.000	8.931	9.931	32.716	181.634	214.350	59.116	94.211
576	1.013	8.900	9.913	33.154	180.992	214.146	58.623	93.328
577	1.026	8.868	9.895	33.586	180.359	213.945	57.829	91.956
578	1.040	8.837	9.877	34.026	179.715	213.741	54.964	86.989
579	1.052	8.808	9.860	34.430	179.128	213.558	56.047	88.295
580	1.065	8.778	9.843	34.847	178.522	213.370	56.497	89.546
581	1.078	8.747	9.825	35.280	177.893	213.173	58.229	92.152
582	1.092	8.715	9.807	35.726	177.244	212.969	60.082	94.380
583	1.106	8.682	9.788	36.193	176.567	212.761	59.353	93.081
584	1.120	8.649	9.769	36.663	175.890	212.553	59.545	93.046
585	1.135	8.616	9.750	37.132	175.216	212.348	58.413	90.780
586	1.149	8.583	9.732	37.590	174.563	212.152	57.892	89.751
587	1.162	8.552	9.715	38.034	173.930	211.964	58.390	90.566
588	1.176	8.520	9.697	38.493	173.276	211.770	59.548	92.491
589	1.190	8.488	9.678	38.951	172.621	211.573	60.426	94.480
590	1.203	8.459	9.662	39.355	172.041	211.396	61.886	95.886
591	1.216	8.429	9.645	39.793	171.416	211.209	57.580	88.429
592	1.230	8.398	9.628	40.232	170.797	211.028	58.002	89.166
593	1.243	8.368	9.611	40.664	170.185	210.849	59.017	90.649
594	1.256	8.337	9.594	41.112	169.553	210.665	58.268	89.631
595	1.270	8.307	9.576	41.552	168.931	210.483	57.839	88.334
596	1.283	8.277	9.560	41.986	168.322	210.308	57.025	86.892
597	1.297	8.246	9.543	42.428	167.704	210.131	56.865	86.529
598	1.310	8.216	9.526	42.869	167.087	209.955	57.668	87.247
599	1.324	8.186	9.509	43.309	166.473	209.783	58.581	88.913
600	1.337	8.155	9.492	43.759	165.846	209.605	59.160	89.274
601	1.351	8.123	9.475	44.220	165.206	209.426	59.748	89.958
602	1.365	8.092	9.458	44.679	164.570	209.249	59.256	89.204
603	1.379	8.061	9.441	45.129	163.947	209.076	58.655	88.286
604	1.393	8.030	9.424	45.585	163.315	208.901	59.322	89.382
605	1.407	7.998	9.406	46.054	162.666	208.720	59.501	89.695
606	1.422	7.966	9.388	46.525	162.013	208.539	59.692	89.844
607	1.436	7.934	9.371	46.999	161.358	208.357	58.280	87.659
608	1.450	7.903	9.353	47.462	160.718	208.180	57.002	85.787
609	1.464	7.872	9.336	47.916	160.090	208.006	55.897	83.869
610	1.478	7.842	9.320	48.358	159.479	207.838	54.792	82.447
611	1.491	7.812	9.304	48.789	158.884	207.673	55.726	83.553
612	1.504	7.783	9.287	49.228	158.279	207.507	58.053	87.052
613	1.519	7.751	9.270	49.693	157.637	207.330	60.672	91.530
614	1.533	7.718	9.252	50.173	156.972	207.145	62.377	94.026
615	1.548	7.686	9.234	50.651	156.308	206.960	61.311	92.003
616	1.563	7.653	9.216	51.140	155.632	206.773	59.381	89.097
617	1.577	7.621	9.198	51.602	154.996	206.598	57.209	85.497
618	1.590	7.592	9.182	52.040	154.395	206.435	55.005	81.956
619	1.604	7.562	9.166	52.479	153.795	206.273	53.735	80.221
620	1.617	7.533	9.150	52.911	153.201	206.112	53.354	79.329
621	1.630	7.504	9.134	53.341	152.613	205.954	55.503	82.702
622	1.644	7.474	9.118	53.792	151.995	205.787	59.364	88.521
623	1.658	7.442	9.101	54.257	151.356	205.614	61.908	92.414
624	1.673	7.410	9.083	54.739	150.695	205.434	62.221	92.870
625	1.688	7.377	9.065	55.225	150.029	205.254	60.956	90.815
626	1.702	7.345	9.047	55.697	149.382	205.079	58.598	86.930
627	1.716	7.315	9.031	56.153	148.761	204.914	57.640	85.274
628	1.730	7.284	9.014	56.612	148.136	204.748	57.064	84.242
629	1.743	7.255	8.999	57.042	147.552	204.593	57.393	84.885
630	1.757	7.225	8.982	57.494	146.938	204.432	57.925	85.167
631	1.771	7.195	8.966	57.943	146.331	204.274	58.261	85.507
632	1.785	7.165	8.950	58.402	145.711	204.113	59.062	86.543
633	1.799	7.135	8.934	58.850	145.106	203.956	59.361	86.778
634	1.813	7.103	8.916	59.331	144.460	203.791	59.788	87.657
635	1.828	7.072	8.899	59.808	143.816	203.624	60.186	88.128
636	1.843	7.039	8.882	60.298	143.158	203.455	60.070	88.175
637	1.857	7.008	8.865	60.775	142.513	203.288	60.177	87.661
638	1.872	6.975	8.847	61.269	141.851	203.120	59.884	86.657
639	1.888	6.942	8.830	61.766	141.191	202.957	59.295	85.596
640	1.903	6.911	8.813	62.254	140.542	202.796	58.986	85.338
641	1.917	6.879	8.796	62.734	139.904	202.638	58.956	85.295
642	1.932	6.848	8.780	63.213	139.266	202.479	59.819	86.695
643	1.947	6.816	8.763	63.701	138.616	202.317	60.222	86.884
644	1.962	6.784	8.746	64.197	137.958	202.155	60.791	87.534
645	1.977	6.751	8.728	64.698	137.295	201.993	60.659	87.064
646	1.993	6.718	8.711	65.202	136.629	201.831	59.413	85.291
647	2.007	6.687	8.694	65.682	135.995	201.677	59.040	84.733
648	2.022	6.656	8.678	66.155	135.370	201.525	58.330	83.618
649	2.036	6.626	8.662	66.621	134.756	201.377	58.834	83.926
650	2.050	6.597	8.647	67.076	134.159	201.235	59.666	85.076
651	2.064	6.567	8.631	67.542	133.548	201.090	60.976	86.916
652	2.080	6.534	8.614	68.050	132.882	200.932	61.626	87.740
653	2.095	6.502	8.597	68.544	132.235	200.779	60.881	86.840
654	2.110	6.470	8.580	69.049	131.572	200.621	60.439	85.893
655	2.125	6.438	8.563	69.543	130.926	200.469	59.754	84.468
656	2.140	6.408	8.548	70.010	130.320	200.330	58.819	83.050
657	2.152	6.382	8.534	70.413	129.796	200.210	59.675	84.508
658	2.165	6.355	8.520	70.842	129.238	200.080	60.214	85.213
659	2.180	6.324	8.504	71.325	128.609	199.934	60.644	85.746
660	2.195	6.292	8.487	71.817	127.970	199.787	61.719	87.394
661	2.210	6.260	8.470	72.322	127.312	199.634	60.910	86.086
662	2.225	6.228	8.454	72.818	126.668	199.485	60.088	84.761
663	2.240	6.197	8.438	73.303	126.037	199.341	59.714	84.358
664	2.255	6.167	8.422	73.787	125.409	199.196	59.039	83.334
665	2.270	6.136	8.405	74.269	124.783	199.052	59.054	82.907
666	2.285	6.104	8.389	74.764	124.144	198.908	60.038	84.204
667	2.300	6.072	8.373	75.268	123.495	198.763	61.006	85.992
668	2.316	6.040	8.356	75.777	122.835	198.612	61.450	86.084
669	2.332	6.007	8.339	76.290	122.174	198.464	61.582	86.260
670	2.348	5.974	8.322	76.814	121.500	198.313	61.247	85.727
671	2.363	5.942	8.305	77.331	120.834	198.164	59.610	83.328
672	2.379	5.910	8.289	77.831	120.191	198.022	59.157	82.672
673	2.394	5.879	8.272	78.324	119.557	197.881	59.666	83.474
674	2.409	5.847	8.256	78.827	118.911	197.738	59.238	82.525
675	2.424	5.816	8.240	79.322	118.276	197.599	60.461	84.240
676	2.440	5.784	8.224	79.825	117.633	197.457	61.137	84.864
677	2.455	5.752	8.207	80.342	116.973	197.315	60.327	83.646
678	2.471	5.720	8.191	80.848	116.327	197.176	60.093	83.256
679	2.486	5.688	8.175	81.353	115.683	197.037	59.288	82.102
680	2.501	5.657	8.159	81.849	115.053	196.902	58.695	81.005
681	2.517	5.626	8.143	82.344	114.425	196.769	59.409	82.203
682	2.532	5.595	8.127	82.842	113.791	196.633	59.961	82.728
683	2.547	5.564	8.111	83.350	113.147	196.497	60.052	82.682
684	2.563	5.532	8.095	83.850	112.514	196.363	60.070	82.576
685	2.578	5.501	8.079	84.348	111.884	196.232	59.942	81.883
686	2.593	5.471	8.064	84.849	111.255	196.104	58.592	80.083
687	2.608	5.441	8.049	85.328	110.652	195.980	57.742	78.654
688	2.618	5.420	8.038	85.669	110.224	195.893	58.929	80.671
689	2.630	5.395	8.025	86.073	109.715	195.787	58.590	79.833
690	2.643	5.370	8.013	86.478	109.206	195.684	58.786	80.411
691	2.656	5.344	7.999	86.902	108.672	195.574	60.190	81.900
692	2.670	5.316	7.985	87.358	108.103	195.461	59.930	81.214
693	2.684	5.287	7.971	87.824	107.523	195.347	59.694	80.539
694	2.698	5.259	7.957	88.284	106.951	195.236	59.370	80.475
695	2.712	5.231	7.943	88.739	106.384	195.123	59.808	80.815
696	2.726	5.202	7.929	89.205	105.804	195.009	60.255	81.148
697	2.741	5.174	7.914	89.676	105.220	194.897	60.849	82.358
698	2.756	5.143	7.899	90.181	104.591	194.772	61.380	82.169
699	2.771	5.112	7.884	90.684	103.973	194.657	60.821	81.227
700	2.786	5.083	7.869	91.170	103.376	194.546	60.395	80.527
701	2.801	5.054	7.855	91.648	102.789	194.437	60.458	80.607
702	2.815	5.026	7.841	92.124	102.205	194.329	60.278	80.703
703	2.830	4.997	7.827	92.599	101.620	194.220	60.892	81.751
704	2.845	4.967	7.812	93.084	101.021	194.105	62.144	83.504
705	2.860	4.936	7.797	93.592	100.393	193.985	61.851	82.638
706	2.876	4.906	7.781	94.103	99.765	193.868	60.687	80.787
707	2.891	4.876	7.767	94.601	99.156	193.757	60.670	80.736
708	2.906	4.846	7.752	95.100	98.545	193.646	60.609	80.784
709	2.921	4.816	7.737	95.595	97.939	193.534	59.943	79.175
710	2.937	4.786	7.723	96.089	97.339	193.428	59.751	79.212
711	2.952	4.756	7.708	96.587	96.733	193.320	62.706	83.503
712	2.968	4.725	7.693	97.105	96.098	193.203	62.764	83.214
713	2.984	4.694	7.678	97.625	95.464	193.089	61.894	81.897
714	2.999	4.664	7.663	98.129	94.851	192.979	61.130	80.709
715	3.014	4.634	7.648	98.631	94.240	192.872	60.758	80.153
716	3.029	4.605	7.634	99.115	93.653	192.768	62.115	82.064
717	3.044	4.575	7.620	99.614	93.046	192.660	63.319	83.496
718	3.058	4.548	7.606	100.062	92.503	192.565	63.965	84.136
719	3.071	4.523	7.594	100.483	91.994	192.477	64.469	84.692
720	3.083	4.501	7.583	100.865	91.533	192.398	63.744	83.459
721	3.095	4.477	7.572	101.268	91.047	192.315	63.459	83.008
722	3.108	4.451	7.559	101.710	90.515	192.225	62.843	82.290
723	3.124	4.421	7.545	102.211	89.912	192.123	63.009	81.882
724	3.138	4.394	7.532	102.673	89.359	192.032	64.331	83.807
725	3.151	4.368	7.519	103.112	88.834	191.946	65.751	85.147
726	3.165	4.342	7.507	103.553	88.309	191.862	66.219	85.440
727	3.179	4.315	7.494	104.015	87.760	191.776	66.104	85.645
728	3.193	4.288	7.481	104.481	87.207	191.687	65.227	84.165
729	3.207	4.262	7.469	104.921	86.684	191.606	64.770	83.507
730	3.220	4.237	7.457	105.362	86.162	191.524	64.744	83.871
731	3.235	4.209	7.443	105.838	85.595	191.433	65.542	84.655
732	3.249	4.182	7.431	106.295	85.051	191.347	66.789	86.240
733	3.264	4.153	7.417	106.797	84.456	191.252	67.071	86.723
734	3.280	4.122	7.402	107.320	83.833	191.153	67.194	86.247
735	3.296	4.091	7.387	107.864	83.190	191.054	66.060	85.004
736	3.313	4.060	7.372	108.391	82.568	190.958	65.528	84.186
737	3.328	4.030	7.358	108.909	81.955	190.864	65.601	84.672
738	3.344	3.999	7.344	109.429	81.338	190.767	65.773	84.840
739	3.360	3.968	7.329	109.959	80.708	190.667	67.316	86.469
740	3.377	3.938	7.314	110.488	80.082	190.570	67.864	87.461
741	3.393	3.906	7.299	111.034	79.437	190.470	67.293	86.698
742	3.410	3.874	7.284	111.574	78.796	190.370	67.213	85.954
743	3.426	3.843	7.270	112.114	78.160	190.274	66.174	84.543
744	3.443	3.812	7.255	112.657	77.523	190.180	65.674	84.483
745	3.460	3.780	7.240	113.201	76.879	190.080	66.721	85.140
746	3.476	3.748	7.225	113.754	76.230	189.984	66.988	85.526
747	3.493	3.716	7.210	114.310	75.576	189.886	67.401	86.311
748	3.511	3.684	7.194	114.871	74.916	189.787	67.827	86.683
749	3.528	3.651	7.179	115.431	74.258	189.688	67.510	86.329
750	3.545	3.619	7.164	115.989	73.602	189.590	66.999	85.427
751	3.562	3.587	7.149	116.544	72.951	189.495	66.520	84.889
752	3.578	3.556	7.134	117.090	72.310	189.400	66.637	85.157
753	3.595	3.524	7.119	117.644	71.659	189.303	67.243	86.122
754	3.612	3.491	7.104	118.197	71.006	189.203	67.541	86.462
755	3.630	3.459	7.088	118.764	70.339	189.103	67.430	86.117
756	3.647	3.426	7.073	119.326	69.679	189.005	67.431	86.621
757	3.664	3.394	7.058	119.883	69.020	188.904	66.188	85.068
758	3.681	3.362	7.042	120.432	68.372	188.804	65.491	84.131
759	3.697	3.330	7.028	120.975	67.731	188.705	65.716	84.241
760	3.713	3.300	7.013	121.505	67.105	188.610	65.545	84.247
761	3.717	3.293	7.010	121.625	66.962	188.587	65.562	84.246
762	3.719	3.289	7.008	121.695	66.880	188.575	66.096	85.105
763	3.729	3.270	6.999	122.008	66.510	188.518	65.926	84.996
764	3.734	3.260	6.994	122.181	66.305	188.486	65.571	84.152
765	3.741	3.246	6.988	122.426	66.017	188.442	65.128	83.785
766	3.751	3.228	6.979	122.735	65.651	188.386	64.724	82.949
767	3.762	3.207	6.969	123.098	65.222	188.320	64.669	83.364
768	3.775	3.182	6.957	123.532	64.708	188.239	64.741	83.771
769	3.790	3.153	6.943	124.027	64.119	188.146	64.742	83.724
770	3.806	3.123	6.929	124.528	63.523	188.051	64.882	83.744
771	3.822	3.093	6.915	125.046	62.909	187.955	64.524	83.829
772	3.837	3.063	6.900	125.565	62.287	187.853	64.446	83.426
773	3.853	3.032	6.885	126.090	61.663	187.752	63.996	82.681
774	3.869	3.002	6.871	126.612	61.042	187.654	63.459	82.264
775	3.885	2.971	6.856	127.130	60.424	187.554	63.388	82.525
776	3.901	2.941	6.842	127.649	59.804	187.452	63.359	82.661
777	3.917	2.910	6.827	128.167	59.181	187.348	63.376	83.229
778	3.933	2.879	6.812	128.687	58.554	187.241	63.006	83.113
779	3.949	2.848	6.797	129.204	57.927	187.131	62.519	82.545
780	3.964	2.818	6.782	129.718	57.303	187.021	61.780	81.714
781	3.980	2.788	6.767	130.222	56.691	186.912	61.390	81.151
782	3.995	2.758	6.753	130.723	56.081	186.804	61.413	81.270
783	4.010	2.728	6.738	131.224	55.471	186.695	61.691	81.476
784	4.026	2.697	6.723	131.730	54.858	186.588	61.968	82.050
785	4.041	2.667	6.709	132.232	54.246	186.478	62.053	81.985
786	4.057	2.637	6.694	132.736	53.633	186.369	61.592	81.771
787	4.072	2.607	6.679	133.242	53.015	186.257	61.180	81.297
788	4.087	2.577	6.664	133.737	52.411	186.148	60.540	80.615
789	4.102	2.548	6.650	134.221	51.818	186.039	60.202	80.279
790	4.117	2.519	6.636	134.703	51.226	185.930	60.270	80.464
791	4.131	2.491	6.622	135.168	50.655	185.823	60.360	80.647
792	4.145	2.462	6.607	135.644	50.070	185.715	60.454	80.776
793	4.160	2.433	6.593	136.117	49.490	185.607	60.202	80.384
794	4.174	2.405	6.579	136.583	48.917	185.501	59.522	79.595
795	4.188	2.377	6.566	137.050	48.344	185.393	59.135	79.139
796	4.203	2.349	6.552	137.513	47.773	185.287	58.761	78.389
797	4.216	2.322	6.538	137.965	47.219	185.184	58.606	77.953
798	4.230	2.294	6.525	138.426	46.655	185.081	58.845	78.701
799	4.245	2.266	6.511	138.893	46.079	184.972	59.255	78.864
800	4.259	2.238	6.497	139.356	45.514	184.869	59.255	79.042
801	4.273	2.210	6.483	139.814	44.952	184.766	58.961	78.567
802	4.287	2.183	6.470	140.275	44.386	184.662	58.505	77.916
803	4.301	2.155	6.456	140.733	43.825	184.558	58.162	77.253
804	4.315	2.128	6.443	141.181	43.277	184.458	58.078	77.398
805	4.329	2.101	6.429	141.635	42.721	184.357	58.558	77.858
806	4.342	2.074	6.416	142.084	42.173	184.257	58.954	78.171
807	4.357	2.046	6.402	142.552	41.602	184.154	58.761	77.684
808	4.371	2.018	6.389	143.015	41.038	184.053	58.669	77.544
809	4.385	1.990	6.375	143.478	40.477	183.955	58.326	76.950
810	4.399	1.964	6.362	143.927	39.932	183.859	57.864	76.223
811	4.412	1.937	6.349	144.374	39.392	183.766	57.935	76.269
812	4.426	1.910	6.336	144.821	38.852	183.673	58.182	76.242
813	4.439	1.884	6.324	145.260	38.324	183.584	58.651	76.849
814	4.453	1.859	6.311	145.693	37.800	183.494	59.041	77.265
815	4.465	1.835	6.300	146.086	37.327	183.413	58.850	77.019
816	4.476	1.812	6.289	146.475	36.859	183.334	58.769	76.817
817	4.488	1.791	6.279	146.837	36.425	183.262	57.989	75.570
818	4.499	1.770	6.268	147.203	35.987	183.190	57.732	75.115
819	4.509	1.749	6.258	147.555	35.566	183.121	58.176	75.597
820	4.521	1.726	6.247	147.945	35.101	183.046	58.274	75.752
821	4.533	1.704	6.237	148.318	34.655	182.973	58.271	75.603
822	4.546	1.679	6.225	148.749	34.140	182.890	58.299	75.489
823	4.559	1.655	6.213	149.161	33.649	182.810	58.033	74.691
824	4.567	1.638	6.205	149.453	33.304	182.757	57.862	74.509
825	4.580	1.614	6.194	149.856	32.826	182.683	58.201	74.745
826	4.593	1.590	6.182	150.278	32.328	182.606	58.147	74.332
827	4.605	1.566	6.171	150.684	31.852	182.535	58.351	74.631
828	4.618	1.541	6.160	151.114	31.346	182.460	59.117	75.350
829	4.630	1.520	6.149	151.490	30.904	182.394	59.468	75.495
830	4.642	1.496	6.138	151.905	30.419	182.324	59.328	75.463
831	4.655	1.472	6.127	152.313	29.941	182.254	59.255	74.663
832	4.667	1.449	6.116	152.725	29.464	182.188	58.519	73.652
833	4.680	1.426	6.106	153.120	29.007	182.127	58.566	73.508
834	4.692	1.402	6.095	153.542	28.519	182.061	59.032	73.842
835	4.705	1.379	6.084	153.959	28.040	181.999	59.118	73.651
836	4.719	1.354	6.072	154.407	27.527	181.934	59.463	73.122
837	4.732	1.329	6.061	154.845	27.032	181.877	59.211	72.450
838	4.746	1.304	6.050	155.298	26.523	181.821	58.985	71.508
839	4.760	1.280	6.039	155.744	26.025	181.770	59.111	71.230
840	4.773	1.255	6.029	156.194	25.527	181.721	59.017	70.628
841	4.787	1.231	6.018	156.649	25.026	181.675	59.161	70.613
842	4.801	1.206	6.007	157.105	24.527	181.632	59.590	71.125
843	4.815	1.182	5.997	157.558	24.030	181.588	59.919	71.123
844	4.829	1.157	5.986	158.018	23.528	181.546	60.379	71.419
845	4.843	1.133	5.976	158.474	23.034	181.507	60.247	71.151
846	4.857	1.108	5.965	158.942	22.525	181.467	60.168	70.574
847	4.872	1.083	5.954	159.412	22.018	181.430	59.972	70.166
848	4.886	1.059	5.944	159.868	21.528	181.395	59.972	69.513
849	4.900	1.035	5.934	160.324	21.041	181.365	60.074	69.215
850	4.914	1.011	5.925	160.780	20.559	181.338	60.481	69.042
851	4.926	0.989	5.916	161.196	20.122	181.319	60.873	69.034
852	4.940	0.966	5.906	161.654	19.644	181.299	60.754	68.417
853	4.954	0.943	5.897	162.109	19.173	181.282	60.360	67.795
854	4.968	0.920	5.888	162.559	18.709	181.268	60.382	67.303
855	4.980	0.900	5.880	162.958	18.301	181.259	60.414	66.766
856	4.993	0.879	5.872	163.385	17.867	181.252	60.969	66.453
857	5.007	0.856	5.863	163.846	17.405	181.251	61.242	66.524
858	5.022	0.833	5.854	164.318	16.934	181.252	61.645	66.344
859	5.036	0.810	5.846	164.794	16.463	181.257	61.469	65.393
860	5.051	0.787	5.838	165.269	15.999	181.268	61.245	64.439
861	5.065	0.764	5.829	165.741	15.542	181.283	61.480	63.772
862	5.080	0.742	5.822	166.215	15.090	181.305	61.513	63.170
863	5.094	0.720	5.814	166.693	14.638	181.331	61.458	62.335
864	5.109	0.698	5.807	167.174	14.189	181.363	61.724	61.958
865	5.124	0.676	5.800	167.648	13.751	181.399	61.483	60.937
866	5.138	0.655	5.793	168.113	13.328	181.441	61.289	59.952
867	5.150	0.637	5.788	168.522	12.960	181.483	61.699	59.322
868	5.164	0.618	5.782	168.967	12.567	181.534	61.652	58.489
869	5.178	0.598	5.776	169.433	12.161	181.594	61.526	57.335
870	5.192	0.579	5.771	169.895	11.765	181.660	62.187	56.784
871	5.207	0.559	5.766	170.370	11.366	181.736	62.126	55.650
872	5.221	0.540	5.761	170.838	10.980	181.818	61.875	54.870
873	5.236	0.521	5.756	171.312	10.593	181.905	62.280	54.131
874	5.250	0.502	5.752	171.784	10.216	182.000	62.252	53.278
875	5.264	0.484	5.748	172.249	9.849	182.099	62.140	52.099
876	5.278	0.467	5.745	172.707	9.496	182.204	62.080	50.991
877	5.293	0.449	5.742	173.179	9.141	182.320	61.958	50.042
878	5.307	0.432	5.739	173.651	8.790	182.441	62.108	49.159
879	5.321	0.415	5.737	174.123	8.447	182.570	62.064	47.941
880	5.336	0.399	5.735	174.587	8.117	182.705	61.944	46.993
881	5.350	0.383	5.733	175.052	7.793	182.846	62.106	46.021
882	5.364	0.368	5.732	175.504	7.485	182.989	62.071	44.863
883	5.378	0.353	5.731	175.968	7.176	183.144	62.069	43.731
884	5.392	0.338	5.730	176.431	6.877	183.307	62.156	42.823
885	5.406	0.324	5.730	176.897	6.581	183.479	61.994	41.741
886	5.421	0.309	5.730	177.368	6.290	183.658	62.145	40.841
887	5.434	0.296	5.730	177.823	6.015	183.837	62.224	39.732
888	5.448	0.283	5.731	178.279	5.746	184.025	62.305	38.768
889	5.463	0.270	5.732	178.743	5.481	184.224	62.397	37.733
890	5.477	0.257	5.734	179.214	5.219	184.434	62.512	36.754
891	5.491	0.244	5.736	179.682	4.966	184.648	62.301	35.699
892	5.506	0.232	5.738	180.149	4.720	184.870	62.527	34.644
893	5.520	0.221	5.740	180.611	4.485	185.096	62.963	34.001
894	5.533	0.210	5.743	181.058	4.264	185.322	63.393	33.260
895	5.547	0.199	5.746	181.498	4.052	185.550	63.518	32.127
896	5.560	0.190	5.749	181.919	3.856	185.775	63.656	31.247
897	5.572	0.181	5.753	182.316	3.677	185.993	63.807	30.342
898	5.582	0.173	5.756	182.665	3.524	186.189	63.729	29.301
899	5.594	0.166	5.759	183.041	3.366	186.407	63.598	28.394
900	5.603	0.160	5.762	183.328	3.248	186.576	63.091	27.370
901	5.615	0.152	5.767	183.713	3.094	186.807	63.128	26.421
902	5.624	0.146	5.770	184.026	2.974	186.999	63.346	25.678
903	5.635	0.140	5.775	184.374	2.844	187.218	63.351	24.840
904	5.646	0.133	5.779	184.735	2.713	187.449	63.366	24.000
905	5.659	0.126	5.785	185.176	2.560	187.736	63.074	23.041
906	5.672	0.119	5.791	185.601	2.417	188.018	62.738	22.157
907	5.685	0.112	5.797	186.004	2.287	188.290	63.144	21.559
908	5.695	0.107	5.802	186.338	2.182	188.520	63.235	20.881
909	5.705	0.102	5.807	186.681	2.078	188.759	63.484	20.122
910	5.717	0.097	5.813	187.053	1.970	189.023	64.020	19.584
911	5.727	0.092	5.819	187.386	1.877	189.262	64.187	18.882
912	5.738	0.088	5.825	187.743	1.780	189.523	64.093	18.182
913	5.749	0.083	5.832	188.111	1.684	189.795	63.941	17.517
914	5.759	0.079	5.838	188.447	1.599	190.046	63.396	16.755
915	5.769	0.075	5.844	188.779	1.519	190.298	63.379	16.059
916	5.780	0.071	5.851	189.138	1.436	190.574	63.611	15.540
917	5.790	0.067	5.857	189.446	1.367	190.813	63.915	15.015
918	5.802	0.063	5.865	189.837	1.282	191.119	63.847	14.464
919	5.811	0.060	5.871	190.156	1.215	191.371	63.555	13.842
920	5.823	0.056	5.879	190.551	1.136	191.687	63.401	13.216
921	5.836	0.052	5.888	190.948	1.060	192.008	63.393	12.731
922	5.848	0.048	5.897	191.365	0.983	192.348	62.964	12.176
923	5.860	0.045	5.905	191.737	0.918	192.654	63.040	11.694
924	5.872	0.042	5.914	192.133	0.850	192.983	63.502	11.268
925	5.884	0.039	5.922	192.520	0.786	193.307	63.357	10.816
926	5.895	0.036	5.931	192.902	0.726	193.628	63.297	10.368
927	5.907	0.033	5.940	193.279	0.669	193.948	63.011	9.900
928	5.920	0.030	5.950	193.699	0.608	194.307	62.792	9.468
929	5.929	0.028	5.957	194.014	0.565	194.579	62.696	9.031
930	5.938	0.026	5.964	194.308	0.526	194.834	62.376	8.631
931	5.945	0.024	5.970	194.538	0.497	195.035	62.572	8.292
932	5.952	0.023	5.975	194.758	0.470	195.228	62.415	7.928
933	5.957	0.022	5.979	194.919	0.451	195.370	62.183	7.551
934	5.961	0.021	5.983	195.052	0.437	195.488	62.130	7.206
935	5.963	0.021	5.984	195.129	0.429	195.558	61.823	6.852
936	5.967	0.020	5.988	195.263	0.415	195.678	61.486	6.544
937	5.970	0.020	5.990	195.349	0.407	195.755	61.481	6.236
938	5.973	0.020	5.992	195.436	0.399	195.835	61.320	5.932
939	5.976	0.019	5.995	195.542	0.389	195.931	61.597	5.685
940	5.983	0.018	6.001	195.754	0.371	196.125	61.852	5.456
941	5.990	0.017	6.007	196.006	0.351	196.357	61.645	5.178
942	5.996	0.016	6.013	196.205	0.335	196.540	61.501	4.922
943	6.003	0.016	6.019	196.421	0.320	196.740	61.199	4.670
944	6.007	0.015	6.023	196.568	0.310	196.878	60.851	4.443
945	6.012	0.015	6.027	196.720	0.300	197.019	60.924	4.236
946	6.018	0.014	6.032	196.915	0.287	197.202	60.811	4.023
947	6.021	0.014	6.035	197.018	0.281	197.298	60.763	3.835
948	6.027	0.013	6.040	197.214	0.270	197.484	60.704	3.648
949	6.032	0.013	6.044	197.359	0.262	197.621	60.392	3.449
950	6.040	0.012	6.052	197.620	0.248	197.868	60.273	3.278
951	6.042	0.012	6.054	197.697	0.245	197.942	60.211	3.109
952	6.050	0.011	6.061	197.953	0.233	198.186	60.052	2.943
953	6.054	0.011	6.065	198.095	0.226	198.321	60.256	2.808
954	6.060	0.011	6.070	198.276	0.218	198.495	60.514	2.674
955	6.066	0.010	6.077	198.502	0.209	198.711	60.500	2.537
956	6.072	0.010	6.082	198.683	0.203	198.886	60.525	2.420
957	6.077	0.010	6.087	198.859	0.196	199.055	60.169	2.285
958	6.082	0.009	6.091	199.003	0.190	199.194	59.993	2.163
959	6.089	0.009	6.098	199.248	0.183	199.430	59.846	2.050
960	6.095	0.009	6.104	199.445	0.176	199.621	59.654	1.937
961	6.102	0.008	6.110	199.667	0.169	199.836	59.644	1.839
962	6.110	0.008	6.118	199.910	0.163	200.073	59.666	1.743
963	6.117	0.008	6.124	200.144	0.156	200.300	59.666	1.654
964	6.125	0.007	6.132	200.412	0.149	200.561	59.731	1.570
965	6.132	0.007	6.139	200.655	0.144	200.799	59.512	1.483
966	6.140	0.007	6.147	200.922	0.138	201.060	59.458	1.400
967	6.149	0.007	6.155	201.188	0.133	201.321	59.570	1.334
968	6.157	0.006	6.163	201.455	0.127	201.582	59.444	1.260
969	6.167	0.006	6.173	201.799	0.120	201.919	59.770	1.197
970	6.178	0.006	6.184	202.163	0.114	202.277	59.697	1.136
971	6.189	0.005	6.194	202.501	0.108	202.609	59.352	1.074
972	6.200	0.005	6.205	202.879	0.101	202.981	58.947	1.011
973	6.211	0.005	6.216	203.240	0.096	203.336	58.633	0.955
974	6.221	0.004	6.226	203.559	0.091	203.650	58.639	0.904
975	6.230	0.004	6.235	203.862	0.087	203.948	58.510	0.853
976	6.240	0.004	6.244	204.170	0.082	204.253	58.505	0.807
977	6.249	0.004	6.253	204.471	0.079	204.550	58.627	0.767
978	6.259	0.004	6.263	204.808	0.075	204.882	58.658	0.727
979	6.269	0.004	6.273	205.132	0.071	205.203	58.348	0.684
980	6.279	0.003	6.283	205.467	0.068	205.534	58.517	0.650
981	6.289	0.003	6.292	205.785	0.065	205.850	58.485	0.615
982	6.301	0.003	6.304	206.161	0.061	206.222	58.195	0.581
983	6.312	0.003	6.314	206.524	0.058	206.582	58.241	0.551
984	6.322	0.003	6.325	206.875	0.055	206.930	58.014	0.522
985	6.334	0.003	6.337	207.262	0.051	207.313	57.844	0.493
986	6.345	0.002	6.348	207.621	0.048	207.669	57.523	0.465
987	6.357	0.002	6.359	208.013	0.045	208.057	57.256	0.440
988	6.369	0.002	6.371	208.397	0.042	208.439	56.889	0.415
989	6.380	0.002	6.382	208.776	0.040	208.816	56.717	0.393
990	6.392	0.002	6.394	209.161	0.038	209.199	56.586	0.372
991	6.404	0.002	6.405	209.538	0.036	209.573	56.440	0.348
992	6.416	0.002	6.417	209.924	0.033	209.957	56.451	0.333
993	6.427	0.002	6.429	210.310	0.031	210.342	56.454	0.316
994	6.439	0.001	6.440	210.690	0.029	210.719	56.324	0.299
995	6.451	0.001	6.452	211.077	0.027	211.104	56.256	0.284
996	6.463	0.001	6.464	211.464	0.025	211.488	56.249	0.270
997	6.474	0.001	6.475	211.849	0.022	211.871	55.971	0.255
998	6.486	0.001	6.487	212.228	0.021	212.249	55.569	0.241
999	6.497	0.001	6.498	212.605	0.020	212.625	55.360	0.228
1000	6.509	0.001	6.510	212.980	0.019	212.999	54.958	0.216
1001	6.520	0.001	6.521	213.352	0.018	213.370	54.522	0.204
1002	6.532	0.001	6.533	213.725	0.017	213.742	54.138	0.194
1003	6.543	0.001	6.544	214.088	0.016	214.104	53.854	0.184
1004	6.554	0.001	6.555	214.453	0.014	214.467	53.716	0.174
1005	6.565	0.001	6.566	214.812	0.013	214.825	53.671	0.166
1006	6.575	0.001	6.576	215.150	0.012	215.162	53.536	0.157
1007	6.586	0.001	6.587	215.502	0.011	215.513	53.541	0.150
1008	6.597	0.000	6.598	215.863	0.010	215.873	53.232	0.142
1009	6.608	0.000	6.608	216.221	0.009	216.230	53.148	0.135
1010	6.619	0.000	6.619	216.576	0.008	216.584	52.998	0.129
1011	6.630	0.000	6.630	216.930	0.007	216.937	52.821	0.122
1012	6.641	0.000	6.641	217.285	0.006	217.291	52.444	0.116
1013	6.651	0.000	6.651	217.636	0.004	217.641	52.174	0.111
1014	6.662	0.000	6.662	217.985	0.003	217.988	51.794	0.105
1015	6.673	0.000	6.673	218.333	0.002	218.335	51.308	0.100
1016	6.683	0.000	6.683	218.672	0.001	218.673	51.007	0.095
1017	6.693	0.000	6.693	219.011	0.000	219.011	50.546	0.090
1018	6.703	0.000	6.703	219.343	0.000	219.343	50.094	0.086
1019	6.714	0.000	6.714	219.678	0.000	219.678	49.558	0.082
1020	6.723	0.000	6.723	219.998	0.000	219.998	49.296	0.078
1021	6.733	0.000	6.733	220.322	0.000	220.322	49.001	0.074
1022	6.743	0.000	6.743	220.645	0.000	220.645	48.624	0.071
1023	6.753	0.000	6.753	220.960	0.000	220.960	48.207	0.067
1024	6.762	0.000	6.762	221.275	0.000	221.275	47.917	0.064
1025	6.772	0.000	6.772	221.587	0.000	221.587	47.483	0.061
1026	6.782	0.000	6.782	221.900	0.000	221.900	46.991	0.059
1027	6.791	0.000	6.791	222.209	0.000	222.209	46.594	0.056
1028	6.800	0.000	6.800	222.514	0.000	222.514	46.082	0.053
1029	6.810	0.000	6.810	222.817	0.000	222.817	45.667	0.051
1030	6.819	0.000	6.819	223.114	0.000	223.114	45.483	0.048
1031	6.828	0.000	6.828	223.412	0.000	223.412	45.366	0.047
1032	6.837	0.000	6.837	223.707	0.000	223.707	45.413	0.045
1033	6.846	0.000	6.846	224.004	0.000	224.004	45.318	0.043
1034	6.855	0.000	6.855	224.296	0.000	224.296	45.217	0.041
1035	6.864	0.000	6.864	224.589	0.000	224.589	44.745	0.039
1036	6.873	0.000	6.873	224.880	0.000	224.880	43.961	0.037
1037	6.881	0.000	6.881	225.166	0.000	225.166	43.242	0.036
1038	6.890	0.000	6.890	225.444	0.000	225.444	42.674	0.034
1039	6.898	0.000	6.898	225.718	0.000	225.718	42.096	0.033
1040	6.907	0.000	6.907	225.991	0.000	225.991	41.928	0.031
1041	6.915	0.000	6.915	226.261	0.000	226.261	41.818	0.030
1042	6.923	0.000	6.923	226.531	0.000	226.531	41.582	0.029
1043	6.931	0.000	6.931	226.800	0.000	226.800	41.299	0.028
1044	6.939	0.000	6.939	227.064	0.000	227.064	40.924	0.027
1045	6.947	0.000	6.947	227.327	0.000	227.327	40.872	0.022
1046	6.955	0.000	6.955	227.588	0.000	227.588	40.686	0.025
1047	6.963	0.000	6.963	227.843	0.000	227.843	40.382	0.020
1048	6.971	0.000	6.971	228.098	0.000	228.098	39.961	0.023
1049	6.979	0.000	6.979	228.354	0.000	228.354	39.562	0.012
1050	6.986	0.000	6.986	228.606	0.000	228.606	39.008	0.021
1051	6.994	0.000	6.994	228.853	0.000	228.853	38.419	0.020
1052	7.002	0.000	7.002	229.097	0.000	229.097	37.934	0.019
1053	7.009	0.000	7.009	229.337	0.000	229.337	37.435	0.010
1054	7.016	0.000	7.016	229.573	0.000	229.573	37.152	0.018
1055	7.023	0.000	7.023	229.807	0.000	229.807	36.904	0.017
1056	7.030	0.000	7.030	230.040	0.000	230.040	36.892	0.009
1057	7.037	0.000	7.037	230.272	0.000	230.272	36.575	0.013
1058	7.044	0.000	7.044	230.503	0.000	230.503	36.124	0.015
1059	7.051	0.000	7.051	230.728	0.000	230.728	35.855	0.015
1060	7.058	0.000	7.058	230.945	0.000	230.945	35.575	0.014
1061	7.065	0.000	7.065	231.166	0.000	231.166	35.310	0.014
1062	7.071	0.000	7.071	231.381	0.000	231.381	34.995	0.009
1063	7.078	0.000	7.078	231.598	0.000	231.598	35.476	0.013
1064	7.085	0.000	7.085	231.814	0.000	231.814	36.530	0.013
1065	7.091	0.000	7.091	232.041	0.000	232.041	34.023	0.012
1066	7.098	0.000	7.098	232.252	0.000	232.252	30.987	0.010
1067	7.104	0.000	7.104	232.439	0.000	232.439	28.859	0.010
1068	7.109	0.000	7.109	232.616	0.000	232.616	27.586	0.008
1069	7.114	0.000	7.114	232.785	0.000	232.785	25.572	0.008
1070	7.119	0.000	7.119	232.932	0.000	232.932	25.589	0.008
1071	7.123	0.000	7.123	233.085	0.000	233.085	28.086	0.006
1072	7.129	0.000	7.129	233.256	0.000	233.256	29.753	0.009
1073	7.134	0.000	7.134	233.437	0.000	233.437	27.934	0.006
1074	7.139	0.000	7.139	233.605	0.000	233.605	26.910	0.008
1075	7.144	0.000	7.144	233.771	0.000	233.771	26.580	0.005
1076	7.149	0.000	7.149	233.927	0.000	233.927	26.624	0.005
1077	7.154	0.000	7.154	234.089	0.000	234.089	26.424	0.007
1078	7.159	0.000	7.159	234.248	0.000	234.248	25.833	0.007
1079	7.164	0.000	7.164	234.403	0.000	234.403	24.903	0.007
1080	7.168	0.000	7.168	234.553	0.000	234.553	23.805	0.006
1081	7.173	0.000	7.173	234.695	0.000	234.695	22.957	0.005
1082	7.177	0.000	7.177	234.828	0.000	234.828	22.514	0.005
1083	7.181	0.000	7.181	234.961	0.000	234.961	22.368	0.006
1084	7.185	0.000	7.185	235.096	0.000	235.096	21.990	0.006
1085	7.189	0.000	7.189	235.223	0.000	235.223	21.365	0.003
1086	7.193	0.000	7.193	235.350	0.000	235.350	20.970	0.004
1087	7.196	0.000	7.196	235.466	0.000	235.466	20.362	0.005
1088	7.200	0.000	7.200	235.583	0.000	235.583	19.773	0.005
1089	7.203	0.000	7.203	235.701	0.000	235.701	19.333	0.005
1090	7.207	0.000	7.207	235.814	0.000	235.814	18.923	0.004
1091	7.210	0.000	7.210	235.921	0.000	235.921	18.572	0.004
1092	7.213	0.000	7.213	236.031	0.000	236.031	18.059	0.003
1093	7.217	0.000	7.217	236.136	0.000	236.136	17.383	0.003
1094	7.219	0.000	7.219	236.226	0.000	236.226	16.695	0.003
1095	7.222	0.000	7.222	236.317	0.000	236.317	16.131	0.004
1096	7.225	0.000	7.225	236.401	0.000	236.401	15.940	0.004
1097	7.227	0.000	7.227	236.483	0.000	236.483	15.626	0.003
1098	7.230	0.000	7.230	236.575	0.000	236.575	15.098	0.003
1099	7.232	0.000	7.232	236.652	0.000	236.652	14.689	0.003
