Wavelength (nm) 	 Efficiency Div Wav 1 (%) 	 Efficiency Div Wav 2 (%) 	 Efficiency Div Wav total (%) 	 Jsc Div Wav 1 (A m^-2) 	 Jsc Div Wav 2 (A m^-2) 	 Jsc Div Wav total (A m^-2) 	 EQE Curve 1 (%) 	 EQE Curve 2 (%) 	Jsc 1 correction factor: 0.12112841760658835	Jsc 2 correction factor: 0.13134985171721028
400	0.000	3.789	3.789	0.000	68.650	68.650	10.421	11.562
401	0.001	3.786	3.787	0.034	68.609	68.643	11.198	12.501
402	0.002	3.784	3.786	0.073	68.563	68.636	11.252	12.457
403	0.003	3.781	3.785	0.113	68.515	68.627	11.118	12.445
404	0.005	3.779	3.783	0.151	68.467	68.619	10.934	12.315
405	0.006	3.776	3.782	0.190	68.420	68.610	11.031	12.395
406	0.007	3.773	3.780	0.229	68.373	68.602	11.121	12.285
407	0.008	3.771	3.779	0.266	68.327	68.593	11.520	12.613
408	0.009	3.768	3.778	0.305	68.281	68.586	11.689	12.719
409	0.011	3.766	3.776	0.346	68.232	68.579	11.936	12.726
410	0.012	3.763	3.775	0.391	68.180	68.571	11.984	12.815
411	0.013	3.760	3.773	0.430	68.135	68.565	12.091	12.862
412	0.014	3.757	3.772	0.474	68.084	68.557	12.294	12.899
413	0.016	3.754	3.770	0.522	68.030	68.552	12.286	12.759
414	0.017	3.752	3.769	0.568	67.977	68.546	12.373	12.997
415	0.019	3.749	3.767	0.614	67.925	68.539	12.543	12.881
416	0.020	3.746	3.766	0.663	67.871	68.534	12.745	13.102
417	0.022	3.743	3.764	0.713	67.815	68.528	13.098	13.272
418	0.023	3.739	3.763	0.764	67.758	68.522	12.912	13.589
419	0.025	3.736	3.761	0.813	67.703	68.516	13.023	13.613
420	0.026	3.733	3.760	0.864	67.645	68.509	12.797	13.375
421	0.028	3.730	3.758	0.910	67.593	68.502	12.873	13.366
422	0.029	3.727	3.756	0.963	67.532	68.495	13.136	13.586
423	0.031	3.724	3.755	1.016	67.472	68.488	13.238	13.738
424	0.033	3.720	3.753	1.070	67.413	68.482	13.215	13.738
425	0.034	3.717	3.751	1.122	67.354	68.475	13.106	13.556
426	0.036	3.714	3.750	1.176	67.293	68.469	13.488	13.906
427	0.038	3.710	3.748	1.231	67.233	68.463	13.509	14.082
428	0.039	3.707	3.746	1.284	67.174	68.458	13.529	14.032
429	0.041	3.704	3.745	1.337	67.113	68.450	13.177	13.719
430	0.042	3.701	3.743	1.386	67.058	68.444	13.420	13.922
431	0.044	3.698	3.742	1.426	67.013	68.439	14.214	14.528
432	0.045	3.696	3.741	1.464	66.971	68.436	14.112	14.560
433	0.047	3.692	3.739	1.527	66.900	68.428	14.148	14.586
434	0.048	3.689	3.737	1.587	66.835	68.422	14.036	14.557
435	0.050	3.685	3.735	1.641	66.773	68.414	14.361	14.692
436	0.052	3.681	3.733	1.703	66.705	68.408	14.384	14.693
437	0.054	3.677	3.731	1.771	66.630	68.401	14.156	14.521
438	0.056	3.673	3.729	1.839	66.554	68.392	14.590	15.037
439	0.058	3.669	3.727	1.901	66.484	68.385	14.996	15.441
440	0.060	3.665	3.725	1.962	66.416	68.378	15.210	15.297
441	0.062	3.661	3.723	2.034	66.337	68.371	14.774	15.328
442	0.064	3.657	3.721	2.103	66.259	68.362	15.075	15.729
443	0.067	3.652	3.719	2.178	66.174	68.352	15.671	16.234
444	0.069	3.647	3.716	2.258	66.085	68.343	15.582	16.095
445	0.071	3.642	3.714	2.335	65.998	68.333	15.434	16.159
446	0.074	3.637	3.711	2.415	65.906	68.321	15.747	16.555
447	0.076	3.633	3.709	2.489	65.822	68.311	15.879	16.584
448	0.079	3.627	3.706	2.574	65.725	68.299	16.291	16.802
449	0.081	3.622	3.703	2.662	65.626	68.289	16.568	17.210
450	0.084	3.616	3.700	2.752	65.525	68.277	16.868	17.540
451	0.087	3.610	3.697	2.848	65.417	68.265	16.499	17.124
452	0.090	3.604	3.694	2.945	65.308	68.253	16.358	17.084
453	0.093	3.598	3.691	3.037	65.203	68.240	17.054	17.706
454	0.096	3.593	3.688	3.126	65.102	68.229	17.666	18.258
455	0.099	3.587	3.685	3.226	64.991	68.216	18.334	18.840
456	0.102	3.580	3.682	3.329	64.875	68.204	18.782	19.334
457	0.105	3.574	3.679	3.438	64.753	68.190	18.927	19.504
458	0.108	3.567	3.675	3.549	64.628	68.177	18.843	19.224
459	0.112	3.560	3.672	3.658	64.507	68.165	19.011	19.260
460	0.115	3.553	3.669	3.768	64.386	68.155	19.269	19.688
461	0.119	3.547	3.665	3.879	64.264	68.143	19.750	20.328
462	0.122	3.539	3.661	3.997	64.132	68.129	19.645	20.332
463	0.126	3.532	3.658	4.116	63.998	68.114	19.985	20.584
464	0.130	3.524	3.654	4.238	63.861	68.099	20.150	20.753
465	0.133	3.517	3.650	4.358	63.727	68.085	19.956	20.422
466	0.137	3.510	3.647	4.476	63.597	68.073	20.273	21.152
467	0.141	3.502	3.643	4.598	63.459	68.057	20.655	21.353
468	0.144	3.495	3.639	4.717	63.326	68.043	20.751	21.370
469	0.148	3.487	3.635	4.842	63.187	68.029	21.019	21.790
470	0.152	3.479	3.631	4.969	63.044	68.013	21.719	22.688
471	0.156	3.471	3.627	5.096	62.901	67.997	21.411	22.479
472	0.160	3.463	3.623	5.224	62.755	67.979	20.650	21.750
473	0.164	3.455	3.619	5.355	62.607	67.962	22.252	23.342
474	0.168	3.447	3.614	5.490	62.453	67.942	23.050	23.878
475	0.172	3.438	3.610	5.631	62.294	67.925	22.166	23.233
476	0.176	3.429	3.605	5.773	62.132	67.905	22.259	23.282
477	0.181	3.420	3.601	5.911	61.976	67.887	23.121	24.364
478	0.185	3.411	3.596	6.055	61.811	67.866	22.959	24.203
479	0.190	3.402	3.591	6.203	61.641	67.844	23.152	24.661
480	0.194	3.392	3.587	6.351	61.470	67.821	23.004	24.003
481	0.199	3.383	3.582	6.500	61.302	67.802	22.464	23.919
482	0.203	3.374	3.577	6.645	61.134	67.779	23.210	24.744
483	0.208	3.364	3.572	6.797	60.958	67.755	23.939	25.162
484	0.212	3.354	3.567	6.952	60.782	67.734	23.911	25.491
485	0.217	3.345	3.562	7.104	60.606	67.710	24.354	26.253
486	0.222	3.335	3.557	7.260	60.424	67.684	24.565	26.191
487	0.226	3.327	3.552	7.388	60.276	67.664	25.264	26.770
488	0.230	3.317	3.548	7.534	60.108	67.643	26.276	28.270
489	0.235	3.307	3.542	7.701	59.914	67.615	26.960	29.497
490	0.240	3.296	3.536	7.862	59.723	67.586	27.247	29.705
491	0.246	3.284	3.530	8.045	59.508	67.553	27.751	29.855
492	0.251	3.273	3.524	8.223	59.301	67.524	28.064	30.286
493	0.257	3.262	3.518	8.397	59.098	67.495	28.371	30.998
494	0.262	3.249	3.512	8.584	58.876	67.461	28.488	30.874
495	0.268	3.237	3.505	8.768	58.660	67.428	29.319	31.688
496	0.274	3.224	3.498	8.970	58.423	67.393	29.516	31.956
497	0.280	3.212	3.492	9.162	58.196	67.358	28.621	31.307
498	0.286	3.199	3.485	9.354	57.969	67.322	28.533	31.058
499	0.292	3.187	3.479	9.540	57.749	67.289	30.312	32.715
500	0.298	3.174	3.472	9.738	57.518	67.256	31.042	33.696
501	0.304	3.161	3.465	9.941	57.279	67.220	30.651	32.989
502	0.310	3.149	3.458	10.136	57.052	67.188	31.156	33.469
503	0.316	3.136	3.452	10.335	56.821	67.155	32.698	34.851
504	0.323	3.122	3.444	10.553	56.568	67.121	32.800	35.075
505	0.329	3.109	3.438	10.757	56.331	67.088	30.795	32.703
506	0.335	3.096	3.431	10.965	56.093	67.057	31.733	33.796
507	0.342	3.081	3.423	11.187	55.836	67.023	32.255	34.404
508	0.348	3.068	3.416	11.403	55.586	66.989	30.647	32.768
509	0.355	3.055	3.410	11.604	55.353	66.958	30.423	32.240
510	0.361	3.042	3.403	11.815	55.112	66.927	30.588	32.009
511	0.367	3.029	3.396	12.021	54.878	66.899	29.677	31.381
512	0.374	3.016	3.389	12.225	54.644	66.870	32.281	33.680
513	0.381	3.002	3.382	12.453	54.387	66.840	33.308	34.274
514	0.387	2.988	3.375	12.675	54.138	66.813	32.592	33.211
515	0.394	2.975	3.369	12.888	53.903	66.791	34.579	35.416
516	0.401	2.961	3.362	13.121	53.645	66.765	35.125	35.064
517	0.408	2.946	3.355	13.359	53.386	66.745	35.226	35.053
518	0.414	2.935	3.349	13.555	53.174	66.730	37.230	36.696
519	0.422	2.921	3.342	13.793	52.921	66.714	36.216	35.892
520	0.428	2.907	3.336	14.017	52.680	66.697	36.776	36.079
521	0.436	2.893	3.329	14.265	52.416	66.682	36.838	35.889
522	0.444	2.878	3.322	14.518	52.149	66.667	35.909	35.366
523	0.451	2.863	3.315	14.772	51.879	66.651	37.676	37.256
524	0.459	2.848	3.307	15.022	51.611	66.634	37.659	36.779
525	0.467	2.833	3.300	15.292	51.325	66.617	36.756	35.583
526	0.475	2.817	3.293	15.554	51.050	66.605	38.079	36.461
527	0.483	2.802	3.286	15.818	50.776	66.594	38.884	37.026
528	0.491	2.789	3.279	16.054	50.532	66.586	39.712	37.276
529	0.499	2.773	3.272	16.331	50.251	66.581	39.380	36.874
530	0.508	2.757	3.265	16.618	49.959	66.577	39.702	36.808
531	0.516	2.742	3.258	16.897	49.678	66.575	39.486	36.747
532	0.525	2.725	3.251	17.191	49.382	66.573	39.997	36.789
533	0.534	2.709	3.243	17.484	49.089	66.573	40.401	36.752
534	0.542	2.695	3.237	17.749	48.828	66.577	40.644	37.585
535	0.551	2.679	3.230	18.035	48.540	66.575	41.847	38.398
536	0.560	2.662	3.223	18.334	48.242	66.576	40.862	36.565
537	0.570	2.646	3.216	18.640	47.945	66.586	41.868	37.391
538	0.579	2.631	3.209	18.930	47.664	66.594	43.223	38.029
539	0.588	2.614	3.202	19.246	47.363	66.610	43.281	37.922
540	0.598	2.598	3.195	19.556	47.069	66.625	43.895	37.943
541	0.607	2.582	3.189	19.859	46.786	66.645	44.748	38.373
542	0.616	2.567	3.183	20.157	46.508	66.665	45.846	40.105
543	0.626	2.549	3.176	20.490	46.193	66.683	47.120	40.281
544	0.637	2.532	3.169	20.828	45.881	66.709	47.268	39.310
545	0.647	2.515	3.162	21.179	45.564	66.743	46.087	38.712
546	0.658	2.498	3.155	21.516	45.258	66.774	46.843	38.726
547	0.668	2.481	3.149	21.853	44.956	66.809	46.944	38.443
548	0.678	2.464	3.143	22.197	44.651	66.848	47.520	39.178
549	0.689	2.448	3.136	22.535	44.349	66.884	48.774	39.591
550	0.700	2.430	3.130	22.896	44.031	66.927	49.198	39.898
551	0.711	2.413	3.123	23.255	43.715	66.970	50.096	40.774
552	0.722	2.395	3.117	23.622	43.391	67.014	50.089	39.976
553	0.733	2.377	3.110	23.998	43.067	67.065	51.195	40.472
554	0.745	2.359	3.104	24.371	42.746	67.118	49.637	39.088
555	0.756	2.342	3.098	24.742	42.430	67.172	49.533	38.617
556	0.768	2.324	3.092	25.115	42.115	67.229	49.416	37.967
557	0.779	2.307	3.086	25.483	41.809	67.292	49.701	37.957
558	0.790	2.291	3.081	25.843	41.510	67.353	51.483	39.492
559	0.801	2.273	3.075	26.224	41.193	67.417	51.627	39.284
560	0.813	2.257	3.069	26.588	40.893	67.481	52.230	39.870
561	0.824	2.240	3.064	26.962	40.583	67.545	52.569	40.392
562	0.836	2.221	3.058	27.363	40.250	67.612	51.352	38.902
563	0.848	2.204	3.052	27.735	39.943	67.678	51.817	38.447
564	0.860	2.187	3.047	28.125	39.630	67.754	53.472	39.384
565	0.872	2.170	3.041	28.522	39.312	67.834	53.330	40.117
566	0.884	2.152	3.035	28.922	38.985	67.906	56.298	41.683
567	0.896	2.134	3.030	29.320	38.664	67.984	56.777	42.510
568	0.909	2.115	3.024	29.752	38.315	68.066	56.837	41.817
569	0.922	2.096	3.018	30.180	37.972	68.152	55.911	41.686
570	0.935	2.077	3.012	30.591	37.641	68.232	54.858	40.598
571	0.947	2.060	3.007	30.994	37.318	68.312	56.318	41.408
572	0.960	2.042	3.001	31.396	36.997	68.394	56.193	41.315
573	0.972	2.023	2.996	31.820	36.660	68.480	57.835	42.736
574	0.986	2.004	2.990	32.260	36.306	68.567	60.139	44.429
575	1.000	1.984	2.983	32.716	35.941	68.657	59.116	43.887
576	1.013	1.964	2.977	33.154	35.588	68.742	58.623	43.371
577	1.026	1.945	2.971	33.586	35.241	68.828	57.829	42.618
578	1.040	1.925	2.965	34.026	34.889	68.915	54.964	40.419
579	1.052	1.908	2.960	34.430	34.567	68.997	56.047	40.714
580	1.065	1.890	2.955	34.847	34.238	69.085	56.497	41.322
581	1.078	1.871	2.949	35.280	33.895	69.175	58.229	42.595
582	1.092	1.851	2.943	35.726	33.541	69.267	60.082	44.163
583	1.106	1.831	2.937	36.193	33.168	69.362	59.353	44.027
584	1.120	1.810	2.930	36.663	32.790	69.453	59.545	44.041
585	1.135	1.789	2.924	37.132	32.415	69.546	58.413	42.919
586	1.149	1.769	2.918	37.590	32.051	69.640	57.892	42.310
587	1.162	1.749	2.912	38.034	31.699	69.733	58.390	42.602
588	1.176	1.729	2.906	38.493	31.336	69.830	59.548	43.378
589	1.190	1.709	2.900	38.951	30.974	69.925	60.426	44.198
590	1.203	1.692	2.894	39.355	30.653	70.008	61.886	45.345
591	1.216	1.672	2.889	39.793	30.305	70.098	57.580	42.999
592	1.230	1.653	2.882	40.232	29.949	70.181	58.002	43.413
593	1.243	1.633	2.876	40.664	29.598	70.262	59.017	43.776
594	1.256	1.614	2.870	41.112	29.238	70.351	58.268	43.279
595	1.270	1.594	2.864	41.552	28.884	70.436	57.839	42.880
596	1.283	1.575	2.858	41.986	28.536	70.521	57.025	42.544
597	1.297	1.555	2.852	42.428	28.178	70.606	56.865	42.563
598	1.310	1.535	2.845	42.869	27.820	70.688	57.668	42.851
599	1.324	1.516	2.839	43.309	27.464	70.773	58.581	43.323
600	1.337	1.496	2.833	43.759	27.104	70.863	59.160	43.792
601	1.351	1.475	2.827	44.220	26.734	70.954	59.748	43.963
602	1.365	1.455	2.821	44.679	26.367	71.047	59.256	43.675
603	1.379	1.435	2.814	45.129	26.007	71.136	58.655	42.971
604	1.393	1.415	2.808	45.585	25.645	71.230	59.322	43.480
605	1.407	1.395	2.802	46.054	25.272	71.326	59.501	43.586
606	1.422	1.374	2.796	46.525	24.897	71.423	59.692	43.670
607	1.436	1.353	2.790	46.999	24.522	71.521	58.280	42.818
608	1.450	1.333	2.783	47.462	24.153	71.614	57.002	42.204
609	1.464	1.313	2.777	47.916	23.789	71.705	55.897	41.416
610	1.478	1.293	2.771	48.358	23.433	71.791	54.792	40.801
611	1.491	1.274	2.765	48.789	23.085	71.874	55.726	41.190
612	1.504	1.255	2.759	49.228	22.733	71.961	58.053	42.505
613	1.519	1.234	2.753	49.693	22.364	72.057	60.672	44.049
614	1.533	1.213	2.747	50.173	21.987	72.159	62.377	45.110
615	1.548	1.193	2.741	50.651	21.611	72.262	61.311	44.421
616	1.563	1.171	2.734	51.140	21.226	72.367	59.381	43.096
617	1.577	1.151	2.728	51.602	20.864	72.466	57.209	41.737
618	1.590	1.132	2.723	52.040	20.517	72.557	55.005	40.376
619	1.604	1.113	2.717	52.479	20.167	72.646	53.735	39.638
620	1.617	1.094	2.711	52.911	19.822	72.733	53.354	39.403
621	1.630	1.075	2.705	53.341	19.478	72.819	55.503	40.646
622	1.644	1.055	2.699	53.792	19.119	72.911	59.364	43.058
623	1.658	1.035	2.693	54.257	18.753	73.010	61.908	44.563
624	1.673	1.014	2.687	54.739	18.376	73.115	62.221	44.691
625	1.688	0.993	2.681	55.225	17.998	73.222	60.956	43.614
626	1.702	0.973	2.675	55.697	17.631	73.328	58.598	42.045
627	1.716	0.953	2.670	56.153	17.276	73.429	57.640	41.477
628	1.730	0.934	2.664	56.612	16.918	73.530	57.064	41.149
629	1.743	0.915	2.658	57.042	16.582	73.623	57.393	41.541
630	1.757	0.896	2.653	57.494	16.227	73.721	57.925	41.868
631	1.771	0.876	2.647	57.943	15.875	73.818	58.261	41.957
632	1.785	0.856	2.641	58.402	15.516	73.918	59.062	42.608
633	1.799	0.837	2.636	58.850	15.166	74.016	59.361	42.482
634	1.813	0.816	2.630	59.331	14.793	74.124	59.788	42.532
635	1.828	0.796	2.624	59.808	14.424	74.232	60.186	42.639
636	1.843	0.775	2.618	60.298	14.048	74.346	60.070	42.563
637	1.857	0.755	2.612	60.775	13.681	74.456	60.177	42.330
638	1.872	0.734	2.607	61.269	13.304	74.574	59.884	41.927
639	1.888	0.713	2.601	61.766	12.927	74.693	59.295	41.269
640	1.903	0.693	2.596	62.254	12.558	74.812	58.986	41.143
641	1.917	0.673	2.590	62.734	12.196	74.929	58.956	40.961
642	1.932	0.653	2.585	63.213	11.835	75.048	59.819	41.515
643	1.947	0.633	2.580	63.701	11.468	75.170	60.222	41.459
644	1.962	0.612	2.574	64.197	11.098	75.295	60.791	41.341
645	1.977	0.592	2.569	64.698	10.729	75.427	60.659	40.865
646	1.993	0.572	2.564	65.202	10.360	75.562	59.413	40.084
647	2.007	0.552	2.560	65.682	10.009	75.691	59.040	39.347
648	2.022	0.533	2.555	66.155	9.666	75.822	58.330	38.752
649	2.036	0.515	2.551	66.621	9.331	75.952	58.834	38.676
650	2.050	0.497	2.547	67.076	9.007	76.083	59.666	39.053
651	2.064	0.479	2.543	67.542	8.676	76.218	60.976	39.177
652	2.080	0.459	2.539	68.050	8.322	76.372	61.626	39.034
653	2.095	0.441	2.535	68.544	7.982	76.526	60.881	38.223
654	2.110	0.422	2.532	69.049	7.638	76.687	60.439	37.180
655	2.125	0.403	2.529	69.543	7.308	76.852	59.754	36.312
656	2.140	0.386	2.526	70.010	7.001	77.011	58.819	35.552
657	2.152	0.372	2.524	70.413	6.737	77.150	59.675	35.378
658	2.165	0.357	2.522	70.842	6.461	77.303	60.214	35.040
659	2.180	0.340	2.520	71.325	6.156	77.482	60.644	34.592
660	2.195	0.323	2.518	71.817	5.852	77.669	61.719	34.192
661	2.210	0.306	2.516	72.322	5.548	77.870	60.910	33.079
662	2.225	0.290	2.516	72.818	5.257	78.074	60.088	31.793
663	2.240	0.275	2.515	73.303	4.978	78.281	59.714	30.710
664	2.255	0.260	2.515	73.787	4.709	78.495	59.039	29.847
665	2.270	0.245	2.515	74.269	4.445	78.714	59.054	28.996
666	2.285	0.231	2.516	74.764	4.181	78.945	60.038	28.526
667	2.300	0.216	2.517	75.268	3.921	79.189	61.006	27.889
668	2.316	0.202	2.518	75.777	3.669	79.445	61.450	27.003
669	2.332	0.189	2.521	76.290	3.424	79.715	61.582	25.823
670	2.348	0.176	2.523	76.814	3.187	80.000	61.247	24.583
671	2.363	0.163	2.527	77.331	2.962	80.293	59.610	23.095
672	2.379	0.152	2.530	77.831	2.752	80.583	59.157	21.878
673	2.394	0.141	2.535	78.324	2.553	80.877	59.666	20.958
674	2.409	0.130	2.539	78.827	2.362	81.188	59.238	19.919
675	2.424	0.120	2.545	79.322	2.182	81.504	60.461	19.025
676	2.440	0.111	2.551	79.825	2.011	81.836	61.137	17.978
677	2.455	0.102	2.557	80.342	1.847	82.189	60.327	16.712
678	2.471	0.094	2.564	80.848	1.694	82.543	60.093	15.590
679	2.486	0.086	2.572	81.353	1.553	82.906	59.288	14.505
680	2.501	0.078	2.580	81.849	1.421	83.270	58.695	13.519
681	2.517	0.072	2.588	82.344	1.298	83.642	59.409	12.667
682	2.532	0.065	2.597	82.842	1.182	84.024	59.961	11.790
683	2.547	0.059	2.607	83.350	1.074	84.424	60.052	10.921
684	2.563	0.054	2.616	83.850	0.976	84.826	60.070	10.036
685	2.578	0.049	2.627	84.348	0.885	85.233	59.942	9.201
686	2.593	0.044	2.637	84.849	0.801	85.650	58.592	8.414
687	2.608	0.040	2.648	85.328	0.726	86.054	57.742	7.664
688	2.618	0.037	2.656	85.669	0.678	86.347	58.929	7.106
689	2.630	0.035	2.665	86.073	0.625	86.698	58.590	6.530
690	2.643	0.032	2.675	86.478	0.577	87.055	58.786	5.992
691	2.656	0.029	2.685	86.902	0.529	87.432	60.190	5.501
692	2.670	0.027	2.697	87.358	0.485	87.842	59.930	5.038
693	2.684	0.024	2.708	87.824	0.443	88.267	59.694	4.608
694	2.698	0.022	2.720	88.284	0.405	88.689	59.370	4.198
695	2.712	0.020	2.732	88.739	0.369	89.108	59.808	3.846
696	2.726	0.019	2.745	89.205	0.336	89.541	60.255	3.511
697	2.741	0.017	2.758	89.676	0.306	89.982	60.849	3.188
698	2.756	0.015	2.771	90.181	0.277	90.458	61.380	2.895
699	2.771	0.014	2.785	90.684	0.251	90.935	60.821	2.616
700	2.786	0.013	2.799	91.170	0.229	91.398	60.395	2.368
701	2.801	0.011	2.812	91.648	0.208	91.856	60.458	2.167
702	2.815	0.010	2.826	92.124	0.189	92.313	60.278	1.989
703	2.830	0.009	2.839	92.599	0.172	92.771	60.892	1.812
704	2.845	0.009	2.853	93.084	0.156	93.240	62.144	1.654
705	2.860	0.008	2.868	93.592	0.142	93.734	61.851	1.501
706	2.876	0.007	2.883	94.103	0.129	94.232	60.687	1.346
707	2.891	0.006	2.898	94.601	0.117	94.718	60.670	1.220
708	2.906	0.006	2.912	95.100	0.106	95.207	60.609	1.120
709	2.921	0.005	2.927	95.595	0.096	95.690	59.943	1.033
710	2.937	0.005	2.941	96.089	0.087	96.175	59.751	0.936
711	2.952	0.004	2.956	96.587	0.079	96.665	62.706	0.859
712	2.968	0.004	2.972	97.105	0.071	97.176	62.764	0.788
713	2.984	0.004	2.987	97.625	0.064	97.689	61.894	0.717
714	2.999	0.003	3.002	98.129	0.058	98.186	61.130	0.648
715	3.014	0.003	3.017	98.631	0.053	98.684	60.758	0.590
716	3.029	0.003	3.032	99.115	0.047	99.162	62.115	0.546
717	3.044	0.002	3.047	99.614	0.042	99.656	63.319	0.507
718	3.058	0.002	3.060	100.062	0.038	100.100	63.965	0.465
719	3.071	0.002	3.073	100.483	0.034	100.517	64.469	0.426
720	3.083	0.002	3.084	100.865	0.032	100.896	63.744	0.388
721	3.095	0.002	3.096	101.268	0.029	101.297	63.459	0.351
722	3.108	0.001	3.110	101.710	0.026	101.737	62.843	0.323
723	3.124	0.001	3.125	102.211	0.024	102.234	63.009	0.295
724	3.138	0.001	3.139	102.673	0.021	102.694	64.331	0.274
725	3.151	0.001	3.152	103.112	0.018	103.130	65.751	0.253
726	3.165	0.001	3.166	103.553	0.017	103.570	66.219	0.233
727	3.179	0.001	3.180	104.015	0.016	104.031	66.104	0.214
728	3.193	0.001	3.194	104.481	0.014	104.495	65.227	0.193
729	3.207	0.001	3.207	104.921	0.013	104.935	64.770	0.177
730	3.220	0.001	3.221	105.362	0.012	105.374	64.744	0.163
731	3.235	0.001	3.235	105.838	0.011	105.849	65.542	0.151
732	3.249	0.001	3.249	106.295	0.009	106.304	66.789	0.140
733	3.264	0.000	3.264	106.797	0.008	106.804	67.071	0.128
734	3.280	0.000	3.280	107.320	0.007	107.326	67.194	0.117
735	3.296	0.000	3.297	107.864	0.005	107.869	66.060	0.107
736	3.313	0.000	3.313	108.391	0.004	108.394	65.528	0.097
737	3.328	0.000	3.329	108.909	0.003	108.912	65.601	0.090
738	3.344	0.000	3.344	109.429	0.001	109.430	65.773	0.082
739	3.360	0.000	3.360	109.959	0.000	109.959	67.316	0.077
740	3.377	0.000	3.377	110.488	0.000	110.488	67.864	0.071
741	3.393	0.000	3.393	111.034	0.000	111.034	67.293	0.065
742	3.410	0.000	3.410	111.574	0.000	111.574	67.213	0.059
743	3.426	0.000	3.426	112.114	0.000	112.114	66.174	0.054
744	3.443	0.000	3.443	112.657	0.000	112.657	65.674	0.050
745	3.460	0.000	3.460	113.201	0.000	113.201	66.721	0.046
746	3.476	0.000	3.476	113.754	0.000	113.754	66.988	0.042
747	3.493	0.000	3.493	114.310	0.000	114.310	67.401	0.039
748	3.511	0.000	3.511	114.871	0.000	114.871	67.827	0.036
749	3.528	0.000	3.528	115.431	0.000	115.431	67.510	0.033
750	3.545	0.000	3.545	115.989	0.000	115.989	66.999	0.030
751	3.562	0.000	3.562	116.544	0.000	116.544	66.520	0.028
752	3.578	0.000	3.578	117.090	0.000	117.090	66.637	0.026
753	3.595	0.000	3.595	117.644	0.000	117.644	67.243	0.024
754	3.612	0.000	3.612	118.197	0.000	118.197	67.541	0.022
755	3.630	0.000	3.630	118.764	0.000	118.764	67.430	0.020
756	3.647	0.000	3.647	119.326	0.000	119.326	67.431	0.019
757	3.664	0.000	3.664	119.883	0.000	119.883	66.188	0.017
758	3.681	0.000	3.681	120.432	0.000	120.432	65.491	0.016
759	3.697	0.000	3.697	120.975	0.000	120.975	65.716	0.014
760	3.713	0.000	3.713	121.505	0.000	121.505	65.545	0.013
761	3.717	0.000	3.717	121.625	0.000	121.625	65.562	0.012
762	3.719	0.000	3.719	121.695	0.000	121.695	66.096	0.007
763	3.729	0.000	3.729	122.008	0.000	122.008	65.926	0.009
764	3.734	0.000	3.734	122.181	0.000	122.181	65.571	0.010
765	3.741	0.000	3.741	122.426	0.000	122.426	65.128	0.007
766	3.751	0.000	3.751	122.735	0.000	122.735	64.724	0.005
767	3.762	0.000	3.762	123.098	0.000	123.098	64.669	0.006
768	3.775	0.000	3.775	123.532	0.000	123.532	64.741	0.004
769	3.790	0.000	3.790	124.027	0.000	124.027	64.742	0.004
770	3.806	0.000	3.806	124.528	0.000	124.528	64.882	0.005
771	3.822	0.000	3.822	125.046	0.000	125.046	64.524	0.005
772	3.837	0.000	3.837	125.565	0.000	125.565	64.446	0.003
773	3.853	0.000	3.853	126.090	0.000	126.090	63.996	0.005
774	3.869	0.000	3.869	126.612	0.000	126.612	63.459	0.004
775	3.885	0.000	3.885	127.130	0.000	127.130	63.388	0.004
776	3.901	0.000	3.901	127.649	0.000	127.649	63.359	0.004
777	3.917	0.000	3.917	128.167	0.000	128.167	63.376	0.002
778	3.933	0.000	3.933	128.687	0.000	128.687	63.006	0.003
779	3.949	0.000	3.949	129.204	0.000	129.204	62.519	0.003
780	3.964	0.000	3.964	129.718	0.000	129.718	61.780	0.003
781	3.980	0.000	3.980	130.222	0.000	130.222	61.390	0.003
782	3.995	0.000	3.995	130.723	0.000	130.723	61.413	0.003
783	4.010	0.000	4.010	131.224	0.000	131.224	61.691	0.002
784	4.026	0.000	4.026	131.730	0.000	131.730	61.968	0.002
785	4.041	0.000	4.041	132.232	0.000	132.232	62.053	0.002
786	4.057	0.000	4.057	132.736	0.000	132.736	61.592	0.002
787	4.072	0.000	4.072	133.242	0.000	133.242	61.180	0.002
788	4.087	0.000	4.087	133.737	0.000	133.737	60.540	0.002
789	4.102	0.000	4.102	134.221	0.000	134.221	60.202	0.002
790	4.117	0.000	4.117	134.703	0.000	134.703	60.270	0.002
791	4.131	0.000	4.131	135.168	0.000	135.168	60.360	0.001
792	4.145	0.000	4.145	135.644	0.000	135.644	60.454	0.001
793	4.160	0.000	4.160	136.117	0.000	136.117	60.202	0.001
794	4.174	0.000	4.174	136.583	0.000	136.583	59.522	0.001
795	4.188	0.000	4.188	137.050	0.000	137.050	59.135	0.001
796	4.203	0.000	4.203	137.513	0.000	137.513	58.761	0.001
797	4.216	0.000	4.216	137.965	0.000	137.965	58.606	0.001
798	4.230	0.000	4.230	138.426	0.000	138.426	58.845	0.001
799	4.245	0.000	4.245	138.893	0.000	138.893	59.255	0.001
800	4.259	0.000	4.259	139.356	0.000	139.356	59.255	0.001
801	4.273	0.000	4.273	139.814	0.000	139.814	58.961	0.001
802	4.287	0.000	4.287	140.275	0.000	140.275	58.505	0.000
803	4.301	0.000	4.301	140.733	0.000	140.733	58.162	0.001
804	4.315	0.000	4.315	141.181	0.000	141.181	58.078	0.001
805	4.329	0.000	4.329	141.635	0.000	141.635	58.558	0.001
806	4.342	0.000	4.342	142.084	0.000	142.084	58.954	0.001
807	4.357	0.000	4.357	142.552	0.000	142.552	58.761	0.000
808	4.371	0.000	4.371	143.015	0.000	143.015	58.669	0.000
809	4.385	0.000	4.385	143.478	0.000	143.478	58.326	0.001
810	4.399	0.000	4.399	143.927	0.000	143.927	57.864	0.001
811	4.412	0.000	4.412	144.374	0.000	144.374	57.935	0.001
812	4.426	0.000	4.426	144.821	0.000	144.821	58.182	0.000
813	4.439	0.000	4.439	145.260	0.000	145.260	58.651	0.000
814	4.453	0.000	4.453	145.693	0.000	145.693	59.041	0.000
815	4.465	0.000	4.465	146.086	0.000	146.086	58.850	0.000
816	4.476	0.000	4.476	146.475	0.000	146.475	58.769	0.000
817	4.488	0.000	4.488	146.837	0.000	146.837	57.989	0.000
818	4.499	0.000	4.499	147.203	0.000	147.203	57.732	0.000
819	4.509	0.000	4.509	147.555	0.000	147.555	58.176	0.000
820	4.521	0.000	4.521	147.945	0.000	147.945	58.274	0.000
821	4.533	0.000	4.533	148.318	0.000	148.318	58.271	0.000
822	4.546	0.000	4.546	148.749	0.000	148.749	58.299	0.000
823	4.559	0.000	4.559	149.161	0.000	149.161	58.033	0.000
824	4.567	0.000	4.567	149.453	0.000	149.453	57.862	0.000
825	4.580	0.000	4.580	149.856	0.000	149.856	58.201	0.000
826	4.593	0.000	4.593	150.278	0.000	150.278	58.147	0.000
827	4.605	0.000	4.605	150.684	0.000	150.684	58.351	0.000
828	4.618	0.000	4.618	151.114	0.000	151.114	59.117	0.000
829	4.630	0.000	4.630	151.490	0.000	151.490	59.468	0.000
830	4.642	0.000	4.642	151.905	0.000	151.905	59.328	0.000
831	4.655	0.000	4.655	152.313	0.000	152.313	59.255	0.000
832	4.667	0.000	4.667	152.725	0.000	152.725	58.519	0.000
833	4.680	0.000	4.680	153.120	0.000	153.120	58.566	0.000
834	4.692	0.000	4.692	153.542	0.000	153.542	59.032	0.000
835	4.705	0.000	4.705	153.959	0.000	153.959	59.118	0.000
836	4.719	0.000	4.719	154.407	0.000	154.407	59.463	0.000
837	4.732	0.000	4.732	154.845	0.000	154.845	59.211	0.000
838	4.746	0.000	4.746	155.298	0.000	155.298	58.985	0.000
839	4.760	0.000	4.760	155.744	0.000	155.744	59.111	0.000
840	4.773	0.000	4.773	156.194	0.000	156.194	59.017	0.000
841	4.787	0.000	4.787	156.649	0.000	156.649	59.161	0.000
842	4.801	0.000	4.801	157.105	0.000	157.105	59.590	0.000
843	4.815	0.000	4.815	157.558	0.000	157.558	59.919	0.000
844	4.829	0.000	4.829	158.018	0.000	158.018	60.379	0.000
845	4.843	0.000	4.843	158.474	0.000	158.474	60.247	0.000
846	4.857	0.000	4.857	158.942	0.000	158.942	60.168	0.000
847	4.872	0.000	4.872	159.412	0.000	159.412	59.972	0.000
848	4.886	0.000	4.886	159.868	0.000	159.868	59.972	0.000
849	4.900	0.000	4.900	160.324	0.000	160.324	60.074	0.000
850	4.914	0.000	4.914	160.780	0.000	160.780	60.481	0.000
851	4.926	0.000	4.926	161.196	0.000	161.196	60.873	0.000
852	4.940	0.000	4.940	161.654	0.000	161.654	60.754	0.000
853	4.954	0.000	4.954	162.109	0.000	162.109	60.360	0.000
854	4.968	0.000	4.968	162.559	0.000	162.559	60.382	0.000
855	4.980	0.000	4.980	162.958	0.000	162.958	60.414	0.000
856	4.993	0.000	4.993	163.385	0.000	163.385	60.969	0.000
857	5.007	0.000	5.007	163.846	0.000	163.846	61.242	0.000
858	5.022	0.000	5.022	164.318	0.000	164.318	61.645	0.000
859	5.036	0.000	5.036	164.794	0.000	164.794	61.469	0.000
860	5.051	0.000	5.051	165.269	0.000	165.269	61.245	0.000
861	5.065	0.000	5.065	165.741	0.000	165.741	61.480	0.000
862	5.080	0.000	5.080	166.215	0.000	166.215	61.513	0.000
863	5.094	0.000	5.094	166.693	0.000	166.693	61.458	0.000
864	5.109	0.000	5.109	167.174	0.000	167.174	61.724	0.000
865	5.124	0.000	5.124	167.648	0.000	167.648	61.483	0.000
866	5.138	0.000	5.138	168.113	0.000	168.113	61.289	0.000
867	5.150	0.000	5.150	168.522	0.000	168.522	61.699	0.000
868	5.164	0.000	5.164	168.967	0.000	168.967	61.652	0.000
869	5.178	0.000	5.178	169.433	0.000	169.433	61.526	0.000
870	5.192	0.000	5.192	169.895	0.000	169.895	62.187	0.000
871	5.207	0.000	5.207	170.370	0.000	170.370	62.126	0.000
872	5.221	0.000	5.221	170.838	0.000	170.838	61.875	0.000
873	5.236	0.000	5.236	171.312	0.000	171.312	62.280	0.000
874	5.250	0.000	5.250	171.784	0.000	171.784	62.252	0.000
875	5.264	0.000	5.264	172.249	0.000	172.249	62.140	0.000
876	5.278	0.000	5.278	172.707	0.000	172.707	62.080	0.000
877	5.293	0.000	5.293	173.179	0.000	173.179	61.958	0.000
878	5.307	0.000	5.307	173.651	0.000	173.651	62.108	0.000
879	5.321	0.000	5.321	174.123	0.000	174.123	62.064	0.000
880	5.336	0.000	5.336	174.587	0.000	174.587	61.944	0.000
881	5.350	0.000	5.350	175.052	0.000	175.052	62.106	0.000
882	5.364	0.000	5.364	175.504	0.000	175.504	62.071	0.000
883	5.378	0.000	5.378	175.968	0.000	175.968	62.069	0.000
884	5.392	0.000	5.392	176.431	0.000	176.431	62.156	0.000
885	5.406	0.000	5.406	176.897	0.000	176.897	61.994	0.000
886	5.421	0.000	5.421	177.368	0.000	177.368	62.145	0.000
887	5.434	0.000	5.434	177.823	0.000	177.823	62.224	0.000
888	5.448	0.000	5.448	178.279	0.000	178.279	62.305	0.000
889	5.463	0.000	5.463	178.743	0.000	178.743	62.397	0.000
890	5.477	0.000	5.477	179.214	0.000	179.214	62.512	0.000
891	5.491	0.000	5.491	179.682	0.000	179.682	62.301	0.000
892	5.506	0.000	5.506	180.149	0.000	180.149	62.527	0.000
893	5.520	0.000	5.520	180.611	0.000	180.611	62.963	0.000
894	5.533	0.000	5.533	181.058	0.000	181.058	63.393	0.000
895	5.547	0.000	5.547	181.498	0.000	181.498	63.518	0.000
896	5.560	0.000	5.560	181.919	0.000	181.919	63.656	0.000
897	5.572	0.000	5.572	182.316	0.000	182.316	63.807	0.000
898	5.582	0.000	5.582	182.665	0.000	182.665	63.729	0.000
899	5.594	0.000	5.594	183.041	0.000	183.041	63.598	0.000
900	5.603	0.000	5.603	183.328	0.000	183.328	63.091	0.000
901	5.615	0.000	5.615	183.713	0.000	183.713	63.128	0.000
902	5.624	0.000	5.624	184.026	0.000	184.026	63.346	0.000
903	5.635	0.000	5.635	184.374	0.000	184.374	63.351	0.000
904	5.646	0.000	5.646	184.735	0.000	184.735	63.366	0.000
905	5.659	0.000	5.659	185.176	0.000	185.176	63.074	0.000
906	5.672	0.000	5.672	185.601	0.000	185.601	62.738	0.000
907	5.685	0.000	5.685	186.004	0.000	186.004	63.144	0.000
908	5.695	0.000	5.695	186.338	0.000	186.338	63.235	0.000
909	5.705	0.000	5.705	186.681	0.000	186.681	63.484	0.000
910	5.717	0.000	5.717	187.053	0.000	187.053	64.020	0.000
911	5.727	0.000	5.727	187.386	0.000	187.386	64.187	0.000
912	5.738	0.000	5.738	187.743	0.000	187.743	64.093	0.000
913	5.749	0.000	5.749	188.111	0.000	188.111	63.941	0.000
914	5.759	0.000	5.759	188.447	0.000	188.447	63.396	0.000
915	5.769	0.000	5.769	188.779	0.000	188.779	63.379	0.000
916	5.780	0.000	5.780	189.138	0.000	189.138	63.611	0.000
917	5.790	0.000	5.790	189.446	0.000	189.446	63.915	0.000
918	5.802	0.000	5.802	189.837	0.000	189.837	63.847	0.000
919	5.811	0.000	5.811	190.156	0.000	190.156	63.555	0.000
920	5.823	0.000	5.823	190.551	0.000	190.551	63.401	0.000
921	5.836	0.000	5.836	190.948	0.000	190.948	63.393	0.000
922	5.848	0.000	5.848	191.365	0.000	191.365	62.964	0.000
923	5.860	0.000	5.860	191.737	0.000	191.737	63.040	0.000
924	5.872	0.000	5.872	192.133	0.000	192.133	63.502	0.000
925	5.884	0.000	5.884	192.520	0.000	192.520	63.357	0.000
926	5.895	0.000	5.895	192.902	0.000	192.902	63.297	0.000
927	5.907	0.000	5.907	193.279	0.000	193.279	63.011	0.000
928	5.920	0.000	5.920	193.699	0.000	193.699	62.792	0.000
929	5.929	0.000	5.929	194.014	0.000	194.014	62.696	0.000
930	5.938	0.000	5.938	194.308	0.000	194.308	62.376	0.000
931	5.945	0.000	5.945	194.538	0.000	194.538	62.572	0.000
932	5.952	0.000	5.952	194.758	0.000	194.758	62.415	0.000
933	5.957	0.000	5.957	194.919	0.000	194.919	62.183	0.000
934	5.961	0.000	5.961	195.052	0.000	195.052	62.130	0.000
935	5.963	0.000	5.963	195.129	0.000	195.129	61.823	0.000
936	5.967	0.000	5.967	195.263	0.000	195.263	61.486	0.000
937	5.970	0.000	5.970	195.349	0.000	195.349	61.481	0.000
938	5.973	0.000	5.973	195.436	0.000	195.436	61.320	0.000
939	5.976	0.000	5.976	195.542	0.000	195.542	61.597	0.000
940	5.983	0.000	5.983	195.754	0.000	195.754	61.852	0.000
941	5.990	0.000	5.990	196.006	0.000	196.006	61.645	0.000
942	5.996	0.000	5.996	196.205	0.000	196.205	61.501	0.000
943	6.003	0.000	6.003	196.421	0.000	196.421	61.199	0.000
944	6.007	0.000	6.007	196.568	0.000	196.568	60.851	0.000
945	6.012	0.000	6.012	196.720	0.000	196.720	60.924	0.000
946	6.018	0.000	6.018	196.915	0.000	196.915	60.811	0.000
947	6.021	0.000	6.021	197.018	0.000	197.018	60.763	0.000
948	6.027	0.000	6.027	197.214	0.000	197.214	60.704	0.000
949	6.032	0.000	6.032	197.359	0.000	197.359	60.392	0.000
950	6.040	0.000	6.040	197.620	0.000	197.620	60.273	0.000
951	6.042	0.000	6.042	197.697	0.000	197.697	60.211	0.000
952	6.050	0.000	6.050	197.953	0.000	197.953	60.052	0.000
953	6.054	0.000	6.054	198.095	0.000	198.095	60.256	0.000
954	6.060	0.000	6.060	198.276	0.000	198.276	60.514	0.000
955	6.066	0.000	6.066	198.502	0.000	198.502	60.500	0.000
956	6.072	0.000	6.072	198.683	0.000	198.683	60.525	0.000
957	6.077	0.000	6.077	198.859	0.000	198.859	60.169	0.000
958	6.082	0.000	6.082	199.003	0.000	199.003	59.993	0.000
959	6.089	0.000	6.089	199.248	0.000	199.248	59.846	0.000
960	6.095	0.000	6.095	199.445	0.000	199.445	59.654	0.000
961	6.102	0.000	6.102	199.667	0.000	199.667	59.644	0.000
962	6.110	0.000	6.110	199.910	0.000	199.910	59.666	0.000
963	6.117	0.000	6.117	200.144	0.000	200.144	59.666	0.000
964	6.125	0.000	6.125	200.412	0.000	200.412	59.731	0.000
965	6.132	0.000	6.132	200.655	0.000	200.655	59.512	0.000
966	6.140	0.000	6.140	200.922	0.000	200.922	59.458	0.000
967	6.149	0.000	6.149	201.188	0.000	201.188	59.570	0.000
968	6.157	0.000	6.157	201.455	0.000	201.455	59.444	0.000
969	6.167	0.000	6.167	201.799	0.000	201.799	59.770	0.000
970	6.178	0.000	6.178	202.163	0.000	202.163	59.697	0.000
971	6.189	0.000	6.189	202.501	0.000	202.501	59.352	0.000
972	6.200	0.000	6.200	202.879	0.000	202.879	58.947	0.000
973	6.211	0.000	6.211	203.240	0.000	203.240	58.633	0.000
974	6.221	0.000	6.221	203.559	0.000	203.559	58.639	0.000
975	6.230	0.000	6.230	203.862	0.000	203.862	58.510	0.000
976	6.240	0.000	6.240	204.170	0.000	204.170	58.505	0.000
977	6.249	0.000	6.249	204.471	0.000	204.471	58.627	0.000
978	6.259	0.000	6.259	204.808	0.000	204.808	58.658	0.000
979	6.269	0.000	6.269	205.132	0.000	205.132	58.348	0.000
980	6.279	0.000	6.279	205.467	0.000	205.467	58.517	0.000
981	6.289	0.000	6.289	205.785	0.000	205.785	58.485	0.000
982	6.301	0.000	6.301	206.161	0.000	206.161	58.195	0.000
983	6.312	0.000	6.312	206.524	0.000	206.524	58.241	0.000
984	6.322	0.000	6.322	206.875	0.000	206.875	58.014	0.000
985	6.334	0.000	6.334	207.262	0.000	207.262	57.844	0.000
986	6.345	0.000	6.345	207.621	0.000	207.621	57.523	0.000
987	6.357	0.000	6.357	208.013	0.000	208.013	57.256	0.000
988	6.369	0.000	6.369	208.397	0.000	208.397	56.889	0.000
989	6.380	0.000	6.380	208.776	0.000	208.776	56.717	0.001
990	6.392	0.000	6.392	209.161	0.000	209.161	56.586	0.002
991	6.404	0.000	6.404	209.538	0.000	209.538	56.440	0.001
992	6.416	0.000	6.416	209.924	0.000	209.924	56.451	0.000
993	6.427	0.000	6.427	210.310	0.000	210.310	56.454	0.000
994	6.439	0.000	6.439	210.690	0.000	210.690	56.324	0.002
995	6.451	0.000	6.451	211.077	0.000	211.077	56.256	0.000
996	6.463	0.000	6.463	211.464	0.000	211.464	56.249	0.000
997	6.474	0.000	6.474	211.849	0.000	211.849	55.971	0.000
998	6.486	0.000	6.486	212.228	0.000	212.228	55.569	0.000
999	6.497	0.000	6.497	212.605	0.000	212.605	55.360	0.000
1000	6.509	0.000	6.509	212.980	0.000	212.980	54.958	0.000
1001	6.520	0.000	6.520	213.352	0.000	213.352	54.522	0.000
1002	6.532	0.000	6.532	213.725	0.000	213.725	54.138	0.000
1003	6.543	0.000	6.543	214.088	0.000	214.088	53.854	0.000
1004	6.554	0.000	6.554	214.453	0.000	214.453	53.716	0.000
1005	6.565	0.000	6.565	214.812	0.000	214.812	53.671	0.000
1006	6.575	0.000	6.575	215.150	0.000	215.150	53.536	0.000
1007	6.586	0.000	6.586	215.502	0.000	215.502	53.541	0.000
1008	6.597	0.000	6.597	215.863	0.000	215.863	53.232	0.000
1009	6.608	0.000	6.608	216.221	0.000	216.221	53.148	0.000
1010	6.619	0.000	6.619	216.576	0.000	216.576	52.998	0.000
1011	6.630	0.000	6.630	216.930	0.000	216.930	52.821	0.000
1012	6.641	0.000	6.641	217.285	0.000	217.285	52.444	0.000
1013	6.651	0.000	6.651	217.636	0.000	217.636	52.174	0.000
1014	6.662	0.000	6.662	217.985	0.000	217.985	51.794	0.000
1015	6.673	0.000	6.673	218.333	0.000	218.333	51.308	0.000
1016	6.683	0.000	6.683	218.672	0.000	218.672	51.007	0.000
1017	6.693	0.000	6.693	219.011	0.000	219.011	50.546	0.000
1018	6.703	0.000	6.703	219.343	0.000	219.343	50.094	0.000
1019	6.714	0.000	6.714	219.678	0.000	219.678	49.558	0.000
1020	6.723	0.000	6.723	219.998	0.000	219.998	49.296	0.000
1021	6.733	0.000	6.733	220.322	0.000	220.322	49.001	0.000
1022	6.743	0.000	6.743	220.645	0.000	220.645	48.624	0.000
1023	6.753	0.000	6.753	220.960	0.000	220.960	48.207	0.000
1024	6.762	0.000	6.762	221.275	0.000	221.275	47.917	0.000
1025	6.772	0.000	6.772	221.587	0.000	221.587	47.483	0.000
1026	6.782	0.000	6.782	221.900	0.000	221.900	46.991	0.000
1027	6.791	0.000	6.791	222.209	0.000	222.209	46.594	0.000
1028	6.800	0.000	6.800	222.514	0.000	222.514	46.082	0.000
1029	6.810	0.000	6.810	222.817	0.000	222.817	45.667	0.000
1030	6.819	0.000	6.819	223.114	0.000	223.114	45.483	0.000
1031	6.828	0.000	6.828	223.412	0.000	223.412	45.366	0.000
1032	6.837	0.000	6.837	223.707	0.000	223.707	45.413	0.000
1033	6.846	0.000	6.846	224.004	0.000	224.004	45.318	0.000
1034	6.855	0.000	6.855	224.296	0.000	224.296	45.217	0.000
1035	6.864	0.000	6.864	224.589	0.000	224.589	44.745	0.000
1036	6.873	0.000	6.873	224.880	0.000	224.880	43.961	0.000
1037	6.881	0.000	6.881	225.166	0.000	225.166	43.242	0.000
1038	6.890	0.000	6.890	225.444	0.000	225.444	42.674	0.000
1039	6.898	0.000	6.898	225.718	0.000	225.718	42.096	0.000
1040	6.907	0.000	6.907	225.991	0.000	225.991	41.928	0.000
1041	6.915	0.000	6.915	226.261	0.000	226.261	41.818	0.000
1042	6.923	0.000	6.923	226.531	0.000	226.531	41.582	0.000
1043	6.931	0.000	6.931	226.800	0.000	226.800	41.299	0.000
1044	6.939	0.000	6.939	227.064	0.000	227.064	40.924	0.000
1045	6.947	0.000	6.947	227.327	0.000	227.327	40.872	0.001
1046	6.955	0.000	6.955	227.588	0.000	227.588	40.686	0.001
1047	6.963	0.000	6.963	227.843	0.000	227.843	40.382	0.001
1048	6.971	0.000	6.971	228.098	0.000	228.098	39.961	0.000
1049	6.979	0.000	6.979	228.354	0.000	228.354	39.562	0.000
1050	6.986	0.000	6.986	228.606	0.000	228.606	39.008	0.001
1051	6.994	0.000	6.994	228.853	0.000	228.853	38.419	0.001
1052	7.002	0.000	7.002	229.097	0.000	229.097	37.934	0.000
1053	7.009	0.000	7.009	229.337	0.000	229.337	37.435	0.000
1054	7.016	0.000	7.016	229.573	0.000	229.573	37.152	0.001
1055	7.023	0.000	7.023	229.807	0.000	229.807	36.904	0.000
1056	7.030	0.000	7.030	230.040	0.000	230.040	36.892	0.000
1057	7.037	0.000	7.037	230.272	0.000	230.272	36.575	0.000
1058	7.044	0.000	7.044	230.503	0.000	230.503	36.124	0.000
1059	7.051	0.000	7.051	230.728	0.000	230.728	35.855	0.000
1060	7.058	0.000	7.058	230.945	0.000	230.945	35.575	0.000
1061	7.065	0.000	7.065	231.166	0.000	231.166	35.310	0.000
1062	7.071	0.000	7.071	231.381	0.000	231.381	34.995	0.000
1063	7.078	0.000	7.078	231.598	0.000	231.598	35.476	0.000
1064	7.085	0.000	7.085	231.814	0.000	231.814	36.530	0.000
1065	7.091	0.000	7.091	232.041	0.000	232.041	34.023	0.000
1066	7.098	0.000	7.098	232.252	0.000	232.252	30.987	0.000
1067	7.104	0.000	7.104	232.439	0.000	232.439	28.859	0.000
1068	7.109	0.000	7.109	232.616	0.000	232.616	27.586	0.000
1069	7.114	0.000	7.114	232.785	0.000	232.785	25.572	0.000
1070	7.119	0.000	7.119	232.932	0.000	232.932	25.589	0.000
1071	7.123	0.000	7.123	233.085	0.000	233.085	28.086	0.000
1072	7.129	0.000	7.129	233.256	0.000	233.256	29.753	0.000
1073	7.134	0.000	7.134	233.437	0.000	233.437	27.934	0.000
1074	7.139	0.000	7.139	233.605	0.000	233.605	26.910	0.000
1075	7.144	0.000	7.144	233.771	0.000	233.771	26.580	0.000
1076	7.149	0.000	7.149	233.927	0.000	233.927	26.624	0.000
1077	7.154	0.000	7.154	234.089	0.000	234.089	26.424	0.000
1078	7.159	0.000	7.159	234.248	0.000	234.248	25.833	0.000
1079	7.164	0.000	7.164	234.403	0.000	234.403	24.903	0.000
1080	7.168	0.000	7.168	234.553	0.000	234.553	23.805	0.000
1081	7.173	0.000	7.173	234.695	0.000	234.695	22.957	0.000
1082	7.177	0.000	7.177	234.828	0.000	234.828	22.514	0.000
1083	7.181	0.000	7.181	234.961	0.000	234.961	22.368	0.000
1084	7.185	0.000	7.185	235.096	0.000	235.096	21.990	0.000
1085	7.189	0.000	7.189	235.223	0.000	235.223	21.365	0.000
1086	7.193	0.000	7.193	235.350	0.000	235.350	20.970	0.000
1087	7.196	0.000	7.196	235.466	0.000	235.466	20.362	0.000
1088	7.200	0.000	7.200	235.583	0.000	235.583	19.773	0.000
1089	7.203	0.000	7.203	235.701	0.000	235.701	19.333	0.000
1090	7.207	0.000	7.207	235.814	0.000	235.814	18.923	0.001
1091	7.210	0.000	7.210	235.921	0.000	235.921	18.572	0.002
1092	7.213	0.000	7.213	236.031	0.000	236.031	18.059	0.002
1093	7.217	0.000	7.217	236.136	0.000	236.136	17.383	0.002
1094	7.219	0.000	7.219	236.226	0.000	236.226	16.695	0.003
1095	7.222	0.000	7.222	236.317	0.000	236.317	16.131	0.002
1096	7.225	0.000	7.225	236.401	0.000	236.401	15.940	0.000
1097	7.227	0.000	7.227	236.483	0.000	236.483	15.626	0.000
1098	7.230	0.000	7.230	236.575	0.000	236.575	15.098	0.000
1099	7.232	0.000	7.232	236.652	0.000	236.652	14.689	0.000
