Wavelength (nm) 	 Efficiency Div Wav 1 (%) 	 Efficiency Div Wav 2 (%) 	 Efficiency Div Wav total (%) 	 Jsc Div Wav 1 (A m^-2) 	 Jsc Div Wav 2 (A m^-2) 	 Jsc Div Wav total (A m^-2) 	 EQE Curve 1 (%) 	 EQE Curve 2 (%) 	Jsc 1 correction factor: 0.12112841760658835	Jsc 2 correction factor: 0.12747424180101746
400	0.000	7.310	7.310	0.000	254.069	254.069	10.421	14.124
401	0.001	7.308	7.309	0.034	254.020	254.054	11.198	15.055
402	0.002	7.307	7.309	0.073	253.966	254.038	11.252	15.145
403	0.003	7.305	7.308	0.113	253.908	254.021	11.118	14.847
404	0.005	7.303	7.308	0.151	253.853	254.005	10.934	14.425
405	0.006	7.302	7.308	0.190	253.800	253.990	11.031	14.494
406	0.007	7.300	7.307	0.229	253.746	253.975	11.121	14.630
407	0.008	7.299	7.307	0.266	253.694	253.961	11.520	15.044
408	0.009	7.297	7.307	0.305	253.641	253.946	11.689	15.178
409	0.011	7.296	7.306	0.346	253.585	253.931	11.936	15.343
410	0.012	7.294	7.306	0.391	253.523	253.915	11.984	15.515
411	0.013	7.292	7.305	0.430	253.470	253.900	12.091	15.474
412	0.014	7.291	7.305	0.474	253.410	253.883	12.294	15.576
413	0.016	7.289	7.305	0.522	253.346	253.868	12.286	15.643
414	0.017	7.287	7.304	0.568	253.285	253.853	12.373	15.736
415	0.019	7.285	7.304	0.614	253.224	253.838	12.543	15.553
416	0.020	7.283	7.304	0.663	253.160	253.823	12.745	15.812
417	0.022	7.281	7.303	0.713	253.094	253.807	13.098	16.477
418	0.023	7.280	7.303	0.764	253.026	253.790	12.912	16.057
419	0.025	7.278	7.303	0.813	252.962	253.775	13.023	16.111
420	0.026	7.276	7.302	0.864	252.896	253.760	12.797	15.788
421	0.028	7.274	7.302	0.910	252.836	253.746	12.873	15.699
422	0.029	7.272	7.302	0.963	252.767	253.730	13.136	15.702
423	0.031	7.270	7.301	1.016	252.700	253.716	13.238	16.068
424	0.033	7.268	7.301	1.070	252.632	253.702	13.215	16.108
425	0.034	7.266	7.301	1.122	252.565	253.686	13.106	15.623
426	0.036	7.264	7.300	1.176	252.497	253.673	13.488	15.672
427	0.038	7.262	7.300	1.231	252.431	253.662	13.509	16.151
428	0.039	7.261	7.300	1.284	252.365	253.649	13.529	16.011
429	0.041	7.259	7.299	1.337	252.298	253.636	13.177	15.799
430	0.042	7.257	7.299	1.386	252.237	253.623	13.420	15.785
431	0.044	7.255	7.299	1.426	252.189	253.614	14.214	16.189
432	0.045	7.254	7.299	1.464	252.143	253.607	14.112	16.301
433	0.047	7.252	7.299	1.527	252.066	253.594	14.148	16.388
434	0.048	7.250	7.298	1.587	251.994	253.580	14.036	15.962
435	0.050	7.248	7.298	1.641	251.929	253.570	14.361	16.546
436	0.052	7.246	7.298	1.703	251.853	253.556	14.384	16.434
437	0.054	7.243	7.298	1.771	251.772	253.543	14.156	16.161
438	0.056	7.241	7.297	1.839	251.690	253.529	14.590	16.410
439	0.058	7.239	7.297	1.901	251.616	253.517	14.996	17.112
440	0.060	7.237	7.297	1.962	251.542	253.505	15.210	17.162
441	0.062	7.234	7.297	2.034	251.457	253.491	14.774	16.983
442	0.064	7.232	7.296	2.103	251.373	253.476	15.075	17.170
443	0.067	7.229	7.296	2.178	251.282	253.460	15.671	17.775
444	0.069	7.227	7.296	2.258	251.187	253.445	15.582	17.663
445	0.071	7.224	7.295	2.335	251.094	253.429	15.434	17.732
446	0.074	7.221	7.295	2.415	250.997	253.412	15.747	18.399
447	0.076	7.219	7.295	2.489	250.906	253.395	15.879	18.322
448	0.079	7.216	7.294	2.574	250.803	253.377	16.291	18.940
449	0.081	7.212	7.294	2.662	250.695	253.357	16.568	18.766
450	0.084	7.209	7.293	2.752	250.588	253.340	16.868	19.271
451	0.087	7.206	7.293	2.848	250.473	253.321	16.499	18.446
452	0.090	7.203	7.293	2.945	250.358	253.303	16.358	18.078
453	0.093	7.200	7.293	3.037	250.251	253.288	17.054	18.444
454	0.096	7.197	7.292	3.126	250.149	253.275	17.666	19.112
455	0.099	7.194	7.292	3.226	250.036	253.261	18.334	20.042
456	0.102	7.190	7.292	3.329	249.917	253.246	18.782	20.301
457	0.105	7.187	7.292	3.438	249.792	253.230	18.927	20.463
458	0.108	7.183	7.291	3.549	249.665	253.214	18.843	20.584
459	0.112	7.179	7.291	3.658	249.540	253.198	19.011	20.445
460	0.115	7.176	7.291	3.768	249.415	253.183	19.269	20.682
461	0.119	7.172	7.291	3.879	249.290	253.168	19.750	21.425
462	0.122	7.168	7.290	3.997	249.155	253.152	19.645	21.399
463	0.126	7.164	7.290	4.116	249.018	253.134	19.985	21.380
464	0.130	7.160	7.290	4.238	248.881	253.119	20.150	21.260
465	0.133	7.156	7.290	4.358	248.748	253.106	19.956	21.364
466	0.137	7.153	7.289	4.476	248.617	253.093	20.273	21.183
467	0.141	7.149	7.289	4.598	248.483	253.081	20.655	21.459
468	0.144	7.145	7.289	4.717	248.353	253.070	20.751	21.711
469	0.148	7.141	7.289	4.842	248.215	253.057	21.019	21.895
470	0.152	7.137	7.289	4.969	248.076	253.045	21.719	22.971
471	0.156	7.133	7.289	5.096	247.935	253.031	21.411	22.531
472	0.160	7.129	7.289	5.224	247.793	253.018	20.650	21.031
473	0.164	7.125	7.289	5.355	247.653	253.008	22.252	22.875
474	0.168	7.121	7.289	5.490	247.508	252.997	23.050	23.900
475	0.172	7.116	7.288	5.631	247.352	252.984	22.166	22.638
476	0.176	7.112	7.288	5.773	247.199	252.972	22.259	22.541
477	0.181	7.108	7.288	5.911	247.053	252.964	23.121	23.739
478	0.185	7.103	7.288	6.055	246.897	252.952	22.959	23.781
479	0.190	7.099	7.288	6.203	246.735	252.938	23.152	23.696
480	0.194	7.094	7.288	6.351	246.577	252.928	23.004	23.180
481	0.199	7.089	7.288	6.500	246.419	252.919	22.464	22.580
482	0.203	7.085	7.288	6.645	246.265	252.910	23.210	23.328
483	0.208	7.080	7.288	6.797	246.104	252.901	23.939	23.931
484	0.212	7.076	7.288	6.952	245.941	252.893	23.911	24.346
485	0.217	7.071	7.288	7.104	245.778	252.882	24.354	24.505
486	0.222	7.066	7.288	7.260	245.614	252.874	24.565	24.638
487	0.226	7.062	7.288	7.388	245.480	252.867	25.264	24.976
488	0.230	7.058	7.288	7.534	245.327	252.861	26.276	26.674
489	0.235	7.053	7.288	7.701	245.148	252.850	26.960	27.885
490	0.240	7.048	7.288	7.862	244.974	252.836	27.247	28.083
491	0.246	7.042	7.288	8.045	244.776	252.821	27.751	28.322
492	0.251	7.037	7.288	8.223	244.585	252.808	28.064	28.380
493	0.257	7.031	7.288	8.397	244.401	252.798	28.371	29.602
494	0.262	7.026	7.288	8.584	244.196	252.780	28.488	29.844
495	0.268	7.020	7.288	8.768	243.993	252.762	29.319	29.850
496	0.274	7.013	7.288	8.970	243.778	252.747	29.516	30.152
497	0.280	7.007	7.288	9.162	243.570	252.732	28.621	28.771
498	0.286	7.002	7.288	9.354	243.367	252.721	28.533	29.297
499	0.292	6.996	7.287	9.540	243.166	252.706	30.312	30.999
500	0.298	6.990	7.287	9.738	242.953	252.691	31.042	32.230
501	0.304	6.983	7.287	9.941	242.731	252.672	30.651	31.734
502	0.310	6.977	7.287	10.136	242.518	252.654	31.156	32.613
503	0.316	6.971	7.287	10.335	242.299	252.634	32.698	33.950
504	0.323	6.964	7.287	10.553	242.061	252.614	32.800	34.705
505	0.329	6.958	7.286	10.757	241.833	252.590	30.795	31.746
506	0.335	6.951	7.286	10.965	241.608	252.573	31.733	33.066
507	0.342	6.944	7.286	11.187	241.364	252.551	32.255	34.531
508	0.348	6.937	7.285	11.403	241.120	252.523	30.647	32.139
509	0.355	6.931	7.285	11.604	240.898	252.502	30.423	30.570
510	0.361	6.924	7.285	11.815	240.676	252.491	30.588	31.070
511	0.367	6.918	7.285	12.021	240.456	252.477	29.677	30.260
512	0.374	6.912	7.285	12.225	240.237	252.462	32.281	32.365
513	0.381	6.905	7.285	12.453	239.997	252.450	33.308	33.566
514	0.387	6.898	7.285	12.675	239.761	252.436	32.592	32.551
515	0.394	6.891	7.285	12.888	239.538	252.426	34.579	34.451
516	0.401	6.884	7.285	13.121	239.293	252.414	35.125	34.793
517	0.408	6.877	7.286	13.359	239.045	252.404	35.226	35.271
518	0.414	6.871	7.286	13.555	238.838	252.394	37.230	38.280
519	0.422	6.864	7.286	13.793	238.582	252.375	36.216	36.939
520	0.428	6.857	7.285	14.017	238.341	252.358	36.776	37.002
521	0.436	6.850	7.285	14.265	238.079	252.344	36.838	37.522
522	0.444	6.842	7.285	14.518	237.807	252.325	35.909	37.553
523	0.451	6.834	7.285	14.772	237.529	252.301	37.676	38.657
524	0.459	6.826	7.285	15.022	237.259	252.281	37.659	38.141
525	0.467	6.818	7.285	15.292	236.971	252.263	36.756	36.664
526	0.475	6.810	7.285	15.554	236.695	252.250	38.079	37.880
527	0.483	6.802	7.285	15.818	236.419	252.237	38.884	39.017
528	0.491	6.795	7.285	16.054	236.169	252.223	39.712	40.270
529	0.499	6.786	7.285	16.331	235.875	252.205	39.380	39.745
530	0.508	6.777	7.285	16.618	235.570	252.187	39.702	40.614
531	0.516	6.769	7.285	16.897	235.269	252.166	39.486	40.737
532	0.525	6.760	7.285	17.191	234.952	252.142	39.997	40.866
533	0.534	6.750	7.285	17.484	234.637	252.120	40.401	41.535
534	0.542	6.742	7.285	17.749	234.350	252.099	40.644	41.383
535	0.551	6.733	7.285	18.035	234.043	252.078	41.847	42.371
536	0.560	6.724	7.285	18.334	233.724	252.058	40.862	41.122
537	0.570	6.715	7.285	18.640	233.400	252.041	41.868	42.528
538	0.579	6.706	7.285	18.930	233.090	252.020	43.223	44.236
539	0.588	6.696	7.284	19.246	232.750	251.996	43.281	45.109
540	0.598	6.686	7.284	19.556	232.410	251.966	43.895	45.826
541	0.607	6.677	7.284	19.859	232.077	251.936	44.748	47.303
542	0.616	6.667	7.283	20.157	231.746	251.903	45.846	50.286
543	0.626	6.656	7.282	20.490	231.362	251.852	47.120	49.921
544	0.637	6.645	7.282	20.828	230.986	251.814	47.268	49.630
545	0.647	6.634	7.282	21.179	230.597	251.776	46.087	47.868
546	0.658	6.624	7.281	21.516	230.230	251.746	46.843	48.078
547	0.668	6.613	7.281	21.853	229.865	251.718	46.944	49.392
548	0.678	6.602	7.281	22.197	229.486	251.682	47.520	50.047
549	0.689	6.591	7.280	22.535	229.111	251.645	48.774	51.606
550	0.700	6.580	7.280	22.896	228.709	251.605	49.198	52.627
551	0.711	6.568	7.279	23.255	228.305	251.561	50.096	53.051
552	0.722	6.557	7.278	23.622	227.896	251.518	50.089	52.534
553	0.733	6.545	7.278	23.998	227.482	251.480	51.195	53.692
554	0.745	6.533	7.278	24.371	227.070	251.441	49.637	51.448
555	0.756	6.521	7.277	24.742	226.666	251.407	49.533	51.588
556	0.768	6.509	7.277	25.115	226.257	251.371	49.416	51.555
557	0.779	6.498	7.277	25.483	225.852	251.335	49.701	52.281
558	0.790	6.486	7.276	25.843	225.455	251.298	51.483	54.591
559	0.801	6.474	7.276	26.224	225.029	251.253	51.627	54.313
560	0.813	6.462	7.275	26.588	224.626	251.214	52.230	55.581
561	0.824	6.450	7.274	26.962	224.207	251.169	52.569	56.515
562	0.836	6.437	7.274	27.363	223.754	251.117	51.352	54.117
563	0.848	6.426	7.273	27.735	223.341	251.076	51.817	54.065
564	0.860	6.413	7.273	28.125	222.913	251.038	53.472	56.744
565	0.872	6.400	7.272	28.522	222.469	250.991	53.330	57.624
566	0.884	6.387	7.271	28.922	222.014	250.936	56.298	61.723
567	0.896	6.374	7.270	29.320	221.554	250.874	56.777	62.429
568	0.909	6.360	7.269	29.752	221.056	250.807	56.837	60.585
569	0.922	6.346	7.268	30.180	220.575	250.755	55.911	60.450
570	0.935	6.333	7.267	30.591	220.108	250.699	54.858	59.436
571	0.947	6.319	7.266	30.994	219.648	250.643	56.318	61.335
572	0.960	6.306	7.266	31.396	219.187	250.583	56.193	61.261
573	0.972	6.292	7.264	31.820	218.701	250.522	57.835	63.776
574	0.986	6.277	7.263	32.260	218.190	250.450	60.139	66.602
575	1.000	6.262	7.262	32.716	217.660	250.375	59.116	64.475
576	1.013	6.248	7.261	33.154	217.156	250.310	58.623	63.252
577	1.026	6.233	7.260	33.586	216.665	250.252	57.829	62.288
578	1.040	6.219	7.259	34.026	216.167	250.193	54.964	59.587
579	1.052	6.206	7.258	34.430	215.707	250.136	56.047	60.601
580	1.065	6.192	7.257	34.847	215.230	250.077	56.497	61.627
581	1.078	6.178	7.256	35.280	214.734	250.014	58.229	63.861
582	1.092	6.163	7.255	35.726	214.219	249.945	60.082	66.548
583	1.106	6.147	7.253	36.193	213.674	249.867	59.353	64.873
584	1.120	6.132	7.252	36.663	213.133	249.796	59.545	64.427
585	1.135	6.116	7.251	37.132	212.599	249.731	58.413	62.498
586	1.149	6.102	7.250	37.590	212.084	249.674	57.892	62.398
587	1.162	6.087	7.250	38.034	211.580	249.615	58.390	63.442
588	1.176	6.072	7.248	38.493	211.057	249.550	59.548	64.707
589	1.190	6.057	7.247	38.951	210.533	249.484	60.426	65.738
590	1.203	6.044	7.246	39.355	210.071	249.426	61.886	67.348
591	1.216	6.029	7.245	39.793	209.569	249.362	57.580	62.479
592	1.230	6.015	7.244	40.232	209.068	249.300	58.002	63.422
593	1.243	6.001	7.243	40.664	208.570	249.234	59.017	64.304
594	1.256	5.986	7.242	41.112	208.056	249.168	58.268	63.674
595	1.270	5.971	7.241	41.552	207.550	249.102	57.839	63.243
596	1.283	5.957	7.240	41.986	207.051	249.037	57.025	62.510
597	1.297	5.942	7.239	42.428	206.541	248.969	56.865	62.285
598	1.310	5.928	7.238	42.869	206.033	248.901	57.668	63.028
599	1.324	5.913	7.237	43.309	205.525	248.835	58.581	63.920
600	1.337	5.898	7.235	43.759	205.010	248.769	59.160	64.854
601	1.351	5.883	7.234	44.220	204.479	248.699	59.748	65.314
602	1.365	5.868	7.233	44.679	203.950	248.629	59.256	65.014
603	1.379	5.853	7.232	45.129	203.431	248.560	58.655	64.343
604	1.393	5.838	7.231	45.585	202.905	248.490	59.322	65.011
605	1.407	5.822	7.229	46.054	202.364	248.418	59.501	64.845
606	1.422	5.806	7.228	46.525	201.824	248.349	59.692	65.306
607	1.436	5.791	7.227	46.999	201.278	248.277	58.280	63.625
608	1.450	5.775	7.226	47.462	200.746	248.208	57.002	62.547
609	1.464	5.760	7.225	47.916	200.223	248.138	55.897	61.387
610	1.478	5.746	7.224	48.358	199.711	248.069	54.792	60.128
611	1.491	5.731	7.222	48.789	199.214	248.004	55.726	61.151
612	1.504	5.717	7.221	49.228	198.707	247.935	58.053	63.724
613	1.519	5.701	7.220	49.693	198.170	247.863	60.672	66.427
614	1.533	5.685	7.219	50.173	197.618	247.791	62.377	68.504
615	1.548	5.670	7.218	50.651	197.065	247.716	61.311	67.723
616	1.563	5.653	7.216	51.140	196.495	247.636	59.381	65.781
617	1.577	5.638	7.215	51.602	195.957	247.559	57.209	62.908
618	1.590	5.623	7.214	52.040	195.450	247.490	55.005	60.572
619	1.604	5.608	7.212	52.479	194.943	247.421	53.735	59.152
620	1.617	5.594	7.211	52.911	194.442	247.353	53.354	58.539
621	1.630	5.580	7.210	53.341	193.946	247.287	55.503	60.873
622	1.644	5.565	7.209	53.792	193.424	247.216	59.364	65.201
623	1.658	5.549	7.207	54.257	192.886	247.143	61.908	68.041
624	1.673	5.533	7.206	54.739	192.328	247.067	62.221	68.770
625	1.688	5.517	7.205	55.225	191.763	246.988	60.956	67.135
626	1.702	5.501	7.203	55.697	191.215	246.912	58.598	64.616
627	1.716	5.486	7.202	56.153	190.687	246.840	57.640	63.501
628	1.730	5.471	7.201	56.612	190.156	246.768	57.064	62.593
629	1.743	5.456	7.200	57.042	189.659	246.701	57.393	63.255
630	1.757	5.441	7.198	57.494	189.135	246.628	57.925	63.758
631	1.771	5.426	7.197	57.943	188.615	246.558	58.261	63.798
632	1.785	5.411	7.196	58.402	188.084	246.486	59.062	64.931
633	1.799	5.396	7.195	58.850	187.566	246.416	59.361	65.126
634	1.813	5.380	7.193	59.331	187.010	246.341	59.788	65.362
635	1.828	5.364	7.192	59.808	186.460	246.269	60.186	65.875
636	1.843	5.348	7.191	60.298	185.897	246.195	60.070	65.940
637	1.857	5.332	7.190	60.775	185.345	246.120	60.177	65.636
638	1.872	5.316	7.189	61.269	184.778	246.047	59.884	65.367
639	1.888	5.300	7.187	61.766	184.208	245.974	59.295	64.610
640	1.903	5.284	7.186	62.254	183.648	245.902	58.986	64.344
641	1.917	5.268	7.185	62.734	183.098	245.831	58.956	64.093
642	1.932	5.252	7.184	63.213	182.548	245.762	59.819	65.224
643	1.947	5.236	7.183	63.701	181.989	245.690	60.222	65.584
644	1.962	5.219	7.181	64.197	181.420	245.617	60.791	66.072
645	1.977	5.203	7.180	64.698	180.846	245.545	60.659	65.770
646	1.993	5.186	7.179	65.202	180.270	245.472	59.413	64.369
647	2.007	5.171	7.178	65.682	179.723	245.405	59.040	63.857
648	2.022	5.155	7.177	66.155	179.184	245.340	58.330	63.085
649	2.036	5.140	7.176	66.621	178.655	245.276	58.834	63.289
650	2.050	5.125	7.175	67.076	178.140	245.216	59.666	64.694
651	2.064	5.110	7.174	67.542	177.609	245.151	60.976	66.066
652	2.080	5.093	7.173	68.050	177.030	245.080	61.626	66.565
653	2.095	5.077	7.172	68.544	176.468	245.012	60.881	65.680
654	2.110	5.060	7.171	69.049	175.894	244.943	60.439	64.915
655	2.125	5.044	7.170	69.543	175.336	244.879	59.754	63.619
656	2.140	5.029	7.169	70.010	174.813	244.823	58.819	62.704
657	2.152	5.016	7.168	70.413	174.361	244.774	59.675	63.896
658	2.165	5.002	7.167	70.842	173.877	244.719	60.214	64.578
659	2.180	4.987	7.167	71.325	173.332	244.657	60.644	65.165
660	2.195	4.971	7.166	71.817	172.776	244.593	61.719	66.348
661	2.210	4.954	7.165	72.322	172.205	244.527	60.910	65.069
662	2.225	4.938	7.164	72.818	171.648	244.465	60.088	64.067
663	2.240	4.923	7.163	73.303	171.102	244.406	59.714	63.474
664	2.255	4.907	7.162	73.787	170.562	244.348	59.039	62.490
665	2.270	4.892	7.161	74.269	170.024	244.293	59.054	62.594
666	2.285	4.876	7.161	74.764	169.472	244.236	60.038	63.947
667	2.300	4.859	7.160	75.268	168.907	244.175	61.006	65.210
668	2.316	4.843	7.159	75.777	168.335	244.112	61.450	65.594
669	2.332	4.826	7.158	76.290	167.759	244.049	61.582	65.690
670	2.348	4.809	7.157	76.814	167.171	243.985	61.247	65.448
671	2.363	4.793	7.156	77.331	166.590	243.921	59.610	63.313
672	2.379	4.777	7.155	77.831	166.030	243.861	59.157	63.018
673	2.394	4.761	7.154	78.324	165.477	243.801	59.666	63.581
674	2.409	4.745	7.154	78.827	164.913	243.740	59.238	63.084
675	2.424	4.729	7.153	79.322	164.359	243.681	60.461	64.440
676	2.440	4.712	7.152	79.825	163.795	243.620	61.137	64.899
677	2.455	4.696	7.151	80.342	163.218	243.560	60.327	63.888
678	2.471	4.680	7.150	80.848	162.653	243.502	60.093	63.616
679	2.486	4.663	7.150	81.353	162.090	243.443	59.288	62.928
680	2.501	4.647	7.149	81.849	161.537	243.386	58.695	62.207
681	2.517	4.632	7.148	82.344	160.985	243.329	59.409	63.301
682	2.532	4.615	7.147	82.842	160.426	243.268	59.961	63.885
683	2.547	4.599	7.146	83.350	159.858	243.207	60.052	63.763
684	2.563	4.583	7.146	83.850	159.298	243.148	60.070	63.738
685	2.578	4.567	7.145	84.348	158.742	243.090	59.942	63.474
686	2.593	4.551	7.144	84.849	158.184	243.033	58.592	62.022
687	2.608	4.536	7.143	85.328	157.650	242.978	57.742	61.020
688	2.618	4.525	7.143	85.669	157.269	242.938	58.929	62.643
689	2.630	4.512	7.142	86.073	156.816	242.889	58.590	61.865
690	2.643	4.499	7.142	86.478	156.365	242.843	58.786	62.630
691	2.656	4.485	7.141	86.902	155.890	242.792	60.190	63.960
692	2.670	4.470	7.140	87.358	155.381	242.739	59.930	63.933
693	2.684	4.455	7.139	87.824	154.858	242.682	59.694	63.420
694	2.698	4.440	7.139	88.284	154.343	242.628	59.370	63.375
695	2.712	4.426	7.138	88.739	153.832	242.571	59.808	63.345
696	2.726	4.411	7.137	89.205	153.312	242.517	60.255	63.742
697	2.741	4.396	7.136	89.676	152.788	242.464	60.849	64.378
698	2.756	4.380	7.136	90.181	152.226	242.407	61.380	64.904
699	2.771	4.363	7.135	90.684	151.668	242.352	60.821	64.160
700	2.786	4.348	7.134	91.170	151.128	242.298	60.395	63.574
701	2.801	4.333	7.134	91.648	150.598	242.246	60.458	63.858
702	2.815	4.317	7.133	92.124	150.069	242.193	60.278	63.619
703	2.830	4.302	7.132	92.599	149.541	242.140	60.892	64.363
704	2.845	4.287	7.132	93.084	149.002	242.086	62.144	65.654
705	2.860	4.270	7.131	93.592	148.436	242.028	61.851	65.156
706	2.876	4.254	7.130	94.103	147.869	241.972	60.687	63.778
707	2.891	4.238	7.129	94.601	147.318	241.919	60.670	63.837
708	2.906	4.222	7.129	95.100	146.766	241.867	60.609	63.913
709	2.921	4.207	7.128	95.595	146.217	241.811	59.943	62.753
710	2.937	4.191	7.128	96.089	145.672	241.761	59.751	62.632
711	2.952	4.175	7.127	96.587	145.124	241.711	62.706	65.658
712	2.968	4.159	7.126	97.105	144.553	241.658	62.764	66.212
713	2.984	4.142	7.126	97.625	143.977	241.602	61.894	65.012
714	2.999	4.126	7.125	98.129	143.420	241.549	61.130	64.278
715	3.014	4.110	7.124	98.631	142.863	241.494	60.758	63.969
716	3.029	4.095	7.124	99.115	142.328	241.442	62.115	65.364
717	3.044	4.079	7.123	99.614	141.774	241.388	63.319	66.235
718	3.058	4.065	7.123	100.062	141.281	241.343	63.965	67.173
719	3.071	4.051	7.122	100.483	140.816	241.299	64.469	67.531
720	3.083	4.039	7.122	100.865	140.395	241.260	63.744	66.496
721	3.095	4.026	7.121	101.268	139.953	241.221	63.459	66.065
722	3.108	4.012	7.121	101.710	139.468	241.179	62.843	65.738
723	3.124	3.997	7.120	102.211	138.916	241.127	63.009	65.187
724	3.138	3.982	7.120	102.673	138.413	241.086	64.331	67.052
725	3.151	3.968	7.120	103.112	137.932	241.044	65.751	68.282
726	3.165	3.954	7.119	103.553	137.450	241.003	66.219	68.426
727	3.179	3.940	7.119	104.015	136.947	240.962	66.104	68.361
728	3.193	3.925	7.118	104.481	136.441	240.921	65.227	67.030
729	3.207	3.912	7.118	104.921	135.964	240.885	64.770	66.294
730	3.220	3.898	7.118	105.362	135.490	240.852	64.744	66.256
731	3.235	3.883	7.118	105.838	134.977	240.816	65.542	67.089
732	3.249	3.869	7.118	106.295	134.485	240.780	66.789	68.598
733	3.264	3.854	7.117	106.797	133.944	240.740	67.071	69.007
734	3.280	3.837	7.117	107.320	133.376	240.696	67.194	69.111
735	3.296	3.820	7.117	107.864	132.787	240.651	66.060	67.846
736	3.313	3.804	7.116	108.391	132.219	240.609	65.528	67.050
737	3.328	3.788	7.116	108.909	131.660	240.569	65.601	67.362
738	3.344	3.772	7.116	109.429	131.100	240.528	65.773	67.086
739	3.360	3.755	7.116	109.959	130.530	240.489	67.316	68.504
740	3.377	3.739	7.116	110.488	129.963	240.451	67.864	69.230
741	3.393	3.722	7.116	111.034	129.377	240.411	67.293	68.436
742	3.410	3.706	7.115	111.574	128.799	240.373	67.213	68.075
743	3.426	3.689	7.115	112.114	128.223	240.337	66.174	67.422
744	3.443	3.672	7.115	112.657	127.640	240.297	65.674	66.918
745	3.460	3.655	7.115	113.201	127.056	240.257	66.721	67.866
746	3.476	3.638	7.115	113.754	126.463	240.217	66.988	68.152
747	3.493	3.621	7.115	114.310	125.868	240.178	67.401	68.865
748	3.511	3.604	7.114	114.871	125.265	240.136	67.827	69.299
749	3.528	3.587	7.114	115.431	124.663	240.094	67.510	68.646
750	3.545	3.569	7.114	115.989	124.066	240.055	66.999	67.837
751	3.562	3.552	7.114	116.544	123.474	240.018	66.520	67.580
752	3.578	3.536	7.114	117.090	122.890	239.980	66.637	67.528
753	3.595	3.519	7.114	117.644	122.300	239.944	67.243	68.212
754	3.612	3.502	7.114	118.197	121.709	239.906	67.541	68.487
755	3.630	3.484	7.114	118.764	121.103	239.867	67.430	68.629
756	3.647	3.467	7.114	119.326	120.501	239.827	67.431	68.705
757	3.664	3.450	7.113	119.883	119.904	239.787	66.188	67.427
758	3.681	3.433	7.113	120.432	119.316	239.748	65.491	66.815
759	3.697	3.416	7.113	120.975	118.733	239.708	65.716	66.794
760	3.713	3.400	7.113	121.505	118.165	239.670	65.545	66.878
761	3.717	3.396	7.113	121.625	118.036	239.661	65.562	67.154
762	3.719	3.394	7.113	121.695	117.961	239.656	66.096	67.884
763	3.729	3.384	7.113	122.008	117.623	239.631	65.926	67.798
764	3.734	3.379	7.113	122.181	117.436	239.617	65.571	67.222
765	3.741	3.371	7.113	122.426	117.172	239.597	65.128	66.786
766	3.751	3.361	7.112	122.735	116.839	239.574	64.724	66.180
767	3.762	3.350	7.112	123.098	116.448	239.546	64.669	66.476
768	3.775	3.337	7.112	123.532	115.979	239.510	64.741	66.719
769	3.790	3.321	7.112	124.027	115.442	239.469	64.742	66.727
770	3.806	3.306	7.111	124.528	114.899	239.427	64.882	66.818
771	3.822	3.289	7.111	125.046	114.338	239.384	64.524	66.755
772	3.837	3.273	7.111	125.565	113.772	239.337	64.446	66.150
773	3.853	3.257	7.110	126.090	113.205	239.295	63.996	65.948
774	3.869	3.241	7.110	126.612	112.639	239.251	63.459	65.655
775	3.885	3.224	7.110	127.130	112.074	239.204	63.388	65.472
776	3.901	3.208	7.109	127.649	111.511	239.159	63.359	65.832
777	3.917	3.192	7.109	128.167	110.943	239.111	63.376	65.836
778	3.933	3.175	7.108	128.687	110.375	239.062	63.006	65.550
779	3.949	3.159	7.108	129.204	109.809	239.013	62.519	65.087
780	3.964	3.143	7.107	129.718	109.245	238.963	61.780	64.251
781	3.980	3.127	7.107	130.222	108.695	238.916	61.390	64.040
782	3.995	3.111	7.106	130.723	108.144	238.867	61.413	63.985
783	4.010	3.095	7.106	131.224	107.593	238.818	61.691	64.432
784	4.026	3.079	7.105	131.730	107.039	238.768	61.968	64.586
785	4.041	3.064	7.105	132.232	106.487	238.719	62.053	64.836
786	4.057	3.048	7.104	132.736	105.932	238.669	61.592	64.476
787	4.072	3.032	7.104	133.242	105.375	238.618	61.180	63.776
788	4.087	3.016	7.103	133.737	104.834	238.570	60.540	63.194
789	4.102	3.001	7.103	134.221	104.301	238.522	60.202	62.864
790	4.117	2.985	7.102	134.703	103.770	238.474	60.270	63.154
791	4.131	2.971	7.102	135.168	103.258	238.426	60.360	63.311
792	4.145	2.956	7.101	135.644	102.733	238.377	60.454	63.360
793	4.160	2.941	7.101	136.117	102.211	238.328	60.202	62.968
794	4.174	2.926	7.100	136.583	101.698	238.281	59.522	62.124
795	4.188	2.911	7.100	137.050	101.185	238.235	59.135	61.763
796	4.203	2.896	7.099	137.513	100.675	238.189	58.761	61.220
797	4.216	2.882	7.099	137.965	100.179	238.145	58.606	61.146
798	4.230	2.868	7.098	138.426	99.673	238.099	58.845	61.446
799	4.245	2.853	7.098	138.893	99.160	238.053	59.255	61.887
800	4.259	2.838	7.097	139.356	98.651	238.007	59.255	61.904
801	4.273	2.824	7.097	139.814	98.148	237.961	58.961	61.399
802	4.287	2.809	7.096	140.275	97.641	237.917	58.505	60.886
803	4.301	2.795	7.096	140.733	97.139	237.872	58.162	60.497
804	4.315	2.781	7.095	141.181	96.648	237.830	58.078	60.450
805	4.329	2.766	7.095	141.635	96.151	237.787	58.558	60.956
806	4.342	2.752	7.094	142.084	95.660	237.744	58.954	61.330
807	4.357	2.737	7.094	142.552	95.147	237.699	58.761	61.143
808	4.371	2.723	7.093	143.015	94.639	237.655	58.669	61.010
809	4.385	2.708	7.093	143.478	94.133	237.611	58.326	60.543
810	4.399	2.694	7.093	143.927	93.643	237.570	57.864	60.056
811	4.412	2.680	7.092	144.374	93.156	237.530	57.935	60.036
812	4.426	2.666	7.092	144.821	92.669	237.490	58.182	60.250
813	4.439	2.652	7.092	145.260	92.192	237.452	58.651	60.745
814	4.453	2.639	7.091	145.693	91.719	237.412	59.041	61.110
815	4.465	2.626	7.091	146.086	91.291	237.376	58.850	60.887
816	4.476	2.614	7.091	146.475	90.867	237.342	58.769	60.738
817	4.488	2.603	7.090	146.837	90.474	237.310	57.989	59.884
818	4.499	2.591	7.090	147.203	90.076	237.278	57.732	59.571
819	4.509	2.580	7.090	147.555	89.693	237.248	58.176	60.070
820	4.521	2.568	7.090	147.945	89.270	237.215	58.274	60.276
821	4.533	2.557	7.089	148.318	88.865	237.183	58.271	60.169
822	4.546	2.543	7.089	148.749	88.396	237.145	58.299	60.041
823	4.559	2.530	7.089	149.161	87.948	237.109	58.033	59.670
824	4.567	2.521	7.089	149.453	87.632	237.085	57.862	59.536
825	4.580	2.509	7.088	149.856	87.195	237.051	58.201	59.754
826	4.593	2.495	7.088	150.278	86.740	237.018	58.147	59.606
827	4.605	2.483	7.088	150.684	86.303	236.986	58.351	59.767
828	4.618	2.470	7.088	151.114	85.839	236.952	59.117	60.703
829	4.630	2.458	7.088	151.490	85.431	236.921	59.468	61.101
830	4.642	2.445	7.087	151.905	84.982	236.887	59.328	60.784
831	4.655	2.432	7.087	152.313	84.542	236.855	59.255	60.495
832	4.667	2.420	7.087	152.725	84.100	236.825	58.519	59.909
833	4.680	2.407	7.087	153.120	83.674	236.794	58.566	59.889
834	4.692	2.394	7.087	153.542	83.220	236.763	59.032	60.305
835	4.705	2.381	7.087	153.959	82.773	236.732	59.118	60.499
836	4.719	2.368	7.086	154.407	82.291	236.698	59.463	60.568
837	4.732	2.354	7.086	154.845	81.822	236.666	59.211	60.302
838	4.746	2.340	7.086	155.298	81.336	236.634	58.985	59.764
839	4.760	2.326	7.086	155.744	80.859	236.604	59.111	59.916
840	4.773	2.313	7.086	156.194	80.380	236.574	59.017	59.768
841	4.787	2.299	7.086	156.649	79.894	236.544	59.161	59.943
842	4.801	2.285	7.086	157.105	79.409	236.514	59.590	60.421
843	4.815	2.271	7.086	157.558	78.926	236.483	59.919	60.798
844	4.829	2.257	7.086	158.018	78.435	236.453	60.379	61.216
845	4.843	2.243	7.086	158.474	77.949	236.423	60.247	61.205
846	4.857	2.228	7.086	158.942	77.448	236.391	60.168	61.036
847	4.872	2.214	7.086	159.412	76.947	236.360	59.972	60.939
848	4.886	2.200	7.085	159.868	76.459	236.327	59.972	60.788
849	4.900	2.186	7.085	160.324	75.972	236.296	60.074	60.988
850	4.914	2.172	7.085	160.780	75.485	236.265	60.481	61.353
851	4.926	2.159	7.085	161.196	75.040	236.237	60.873	61.782
852	4.940	2.145	7.085	161.654	74.551	236.205	60.754	61.626
853	4.954	2.131	7.085	162.109	74.065	236.174	60.360	61.438
854	4.968	2.117	7.085	162.559	73.583	236.142	60.382	61.232
855	4.980	2.105	7.085	162.958	73.159	236.116	60.414	61.311
856	4.993	2.092	7.085	163.385	72.702	236.088	60.969	61.772
857	5.007	2.078	7.085	163.846	72.212	236.057	61.242	62.118
858	5.022	2.063	7.085	164.318	71.708	236.026	61.645	62.397
859	5.036	2.048	7.085	164.794	71.201	235.995	61.469	62.288
860	5.051	2.034	7.085	165.269	70.695	235.963	61.245	61.988
861	5.065	2.019	7.085	165.741	70.191	235.932	61.480	62.100
862	5.080	2.005	7.085	166.215	69.688	235.902	61.513	61.988
863	5.094	1.990	7.085	166.693	69.180	235.874	61.458	62.226
864	5.109	1.976	7.085	167.174	68.668	235.842	61.724	62.507
865	5.124	1.961	7.085	167.648	68.163	235.811	61.483	62.233
866	5.138	1.947	7.085	168.113	67.667	235.780	61.289	61.855
867	5.150	1.934	7.085	168.522	67.232	235.755	61.699	62.082
868	5.164	1.921	7.085	168.967	66.762	235.729	61.652	62.118
869	5.178	1.907	7.085	169.433	66.269	235.702	61.526	61.982
870	5.192	1.892	7.085	169.895	65.779	235.674	62.187	62.552
871	5.207	1.878	7.085	170.370	65.276	235.645	62.126	62.534
872	5.221	1.864	7.085	170.838	64.779	235.617	61.875	62.375
873	5.236	1.849	7.085	171.312	64.276	235.588	62.280	62.705
874	5.250	1.835	7.085	171.784	63.775	235.560	62.252	62.737
875	5.264	1.821	7.085	172.249	63.282	235.531	62.140	62.762
876	5.278	1.807	7.085	172.707	62.795	235.502	62.080	62.542
877	5.293	1.792	7.085	173.179	62.297	235.475	61.958	62.508
878	5.307	1.778	7.085	173.651	61.796	235.447	62.108	62.494
879	5.321	1.763	7.085	174.123	61.296	235.419	62.064	62.292
880	5.336	1.749	7.085	174.587	60.805	235.392	61.944	62.272
881	5.350	1.735	7.085	175.052	60.313	235.366	62.106	62.532
882	5.364	1.721	7.085	175.504	59.834	235.338	62.071	62.274
883	5.378	1.707	7.085	175.968	59.344	235.312	62.069	62.350
884	5.392	1.693	7.085	176.431	58.855	235.286	62.156	62.513
885	5.406	1.679	7.085	176.897	58.362	235.259	61.994	62.506
886	5.421	1.665	7.085	177.368	57.862	235.230	62.145	62.535
887	5.434	1.651	7.085	177.823	57.380	235.203	62.224	62.304
888	5.448	1.637	7.085	178.279	56.898	235.177	62.305	62.405
889	5.463	1.623	7.085	178.743	56.409	235.152	62.397	62.647
890	5.477	1.609	7.086	179.214	55.910	235.125	62.512	62.600
891	5.491	1.594	7.086	179.682	55.417	235.099	62.301	62.389
892	5.506	1.580	7.086	180.149	54.924	235.073	62.527	62.761
893	5.520	1.566	7.086	180.611	54.437	235.048	62.963	62.904
894	5.533	1.553	7.086	181.058	53.966	235.024	63.393	63.451
895	5.547	1.539	7.086	181.498	53.503	235.001	63.518	63.461
896	5.560	1.527	7.086	181.919	53.060	234.979	63.656	63.504
897	5.572	1.515	7.086	182.316	52.643	234.959	63.807	63.628
898	5.582	1.504	7.087	182.665	52.277	234.942	63.729	63.786
899	5.594	1.493	7.087	183.041	51.882	234.923	63.598	63.507
900	5.603	1.484	7.087	183.328	51.580	234.908	63.091	63.193
901	5.615	1.472	7.087	183.713	51.175	234.888	63.128	63.040
902	5.624	1.463	7.087	184.026	50.847	234.872	63.346	63.153
903	5.635	1.452	7.087	184.374	50.481	234.855	63.351	63.233
904	5.646	1.441	7.087	184.735	50.102	234.838	63.366	63.108
905	5.659	1.428	7.087	185.176	49.640	234.816	63.074	63.032
906	5.672	1.415	7.087	185.601	49.192	234.794	62.738	62.519
907	5.685	1.403	7.088	186.004	48.770	234.774	63.144	63.051
908	5.695	1.393	7.088	186.338	48.419	234.756	63.235	62.976
909	5.705	1.383	7.088	186.681	48.059	234.740	63.484	63.227
910	5.717	1.371	7.088	187.053	47.670	234.723	64.020	63.654
911	5.727	1.361	7.088	187.386	47.321	234.707	64.187	63.830
912	5.738	1.351	7.088	187.743	46.946	234.689	64.093	63.683
913	5.749	1.340	7.088	188.111	46.561	234.672	63.941	63.585
914	5.759	1.329	7.089	188.447	46.209	234.656	63.396	63.139
915	5.769	1.319	7.089	188.779	45.861	234.640	63.379	63.128
916	5.780	1.309	7.089	189.138	45.484	234.622	63.611	63.238
917	5.790	1.299	7.089	189.446	45.162	234.608	63.915	63.274
918	5.802	1.288	7.089	189.837	44.754	234.591	63.847	63.509
919	5.811	1.278	7.089	190.156	44.421	234.577	63.555	62.961
920	5.823	1.266	7.090	190.551	44.009	234.560	63.401	63.113
921	5.836	1.254	7.090	190.948	43.594	234.542	63.393	63.140
922	5.848	1.242	7.090	191.365	43.158	234.522	62.964	62.646
923	5.860	1.230	7.090	191.737	42.768	234.504	63.040	62.549
924	5.872	1.219	7.090	192.133	42.353	234.486	63.502	62.812
925	5.884	1.207	7.091	192.520	41.950	234.471	63.357	62.763
926	5.895	1.195	7.091	192.902	41.553	234.455	63.297	62.693
927	5.907	1.184	7.091	193.279	41.159	234.437	63.011	62.327
928	5.920	1.172	7.091	193.699	40.722	234.421	62.792	62.159
929	5.929	1.162	7.091	194.014	40.393	234.407	62.696	62.060
930	5.938	1.153	7.092	194.308	40.086	234.394	62.376	61.699
931	5.945	1.146	7.092	194.538	39.846	234.384	62.572	61.736
932	5.952	1.140	7.092	194.758	39.619	234.377	62.415	61.617
933	5.957	1.135	7.092	194.919	39.451	234.369	62.183	61.423
934	5.961	1.131	7.092	195.052	39.312	234.364	62.130	61.371
935	5.963	1.129	7.092	195.129	39.231	234.361	61.823	61.012
936	5.967	1.125	7.092	195.263	39.093	234.355	61.486	60.698
937	5.970	1.122	7.092	195.349	39.003	234.352	61.481	60.521
938	5.973	1.120	7.092	195.436	38.913	234.349	61.320	60.249
939	5.976	1.116	7.092	195.542	38.802	234.344	61.597	60.698
940	5.983	1.110	7.092	195.754	38.581	234.336	61.852	60.877
941	5.990	1.102	7.093	196.006	38.320	234.326	61.645	60.655
942	5.996	1.097	7.093	196.205	38.114	234.319	61.501	60.553
943	6.003	1.090	7.093	196.421	37.889	234.310	61.199	60.247
944	6.007	1.086	7.093	196.568	37.736	234.305	60.851	59.932
945	6.012	1.081	7.093	196.720	37.579	234.299	60.924	59.869
946	6.018	1.075	7.093	196.915	37.378	234.293	60.811	59.689
947	6.021	1.072	7.093	197.018	37.271	234.289	60.763	59.600
948	6.027	1.066	7.094	197.214	37.068	234.282	60.704	59.460
949	6.032	1.062	7.094	197.359	36.918	234.277	60.392	59.209
950	6.040	1.054	7.094	197.620	36.649	234.269	60.273	58.931
951	6.042	1.052	7.094	197.697	36.569	234.266	60.211	58.821
952	6.050	1.045	7.094	197.953	36.306	234.259	60.052	58.754
953	6.054	1.040	7.094	198.095	36.159	234.254	60.256	58.961
954	6.060	1.035	7.094	198.276	35.972	234.248	60.514	59.051
955	6.066	1.028	7.095	198.502	35.740	234.242	60.500	58.962
956	6.072	1.023	7.095	198.683	35.554	234.237	60.525	58.981
957	6.077	1.018	7.095	198.859	35.374	234.233	60.169	58.664
958	6.082	1.013	7.095	199.003	35.226	234.229	59.993	58.420
959	6.089	1.006	7.096	199.248	34.976	234.224	59.846	58.196
960	6.095	1.000	7.096	199.445	34.774	234.219	59.654	58.012
961	6.102	0.994	7.096	199.667	34.547	234.214	59.644	57.923
962	6.110	0.987	7.096	199.910	34.298	234.209	59.666	57.852
963	6.117	0.980	7.097	200.144	34.060	234.204	59.666	57.846
964	6.125	0.972	7.097	200.412	33.787	234.199	59.731	57.913
965	6.132	0.965	7.097	200.655	33.540	234.195	59.512	57.665
966	6.140	0.957	7.098	200.922	33.268	234.190	59.458	57.525
967	6.149	0.949	7.098	201.188	32.998	234.186	59.570	57.640
968	6.157	0.942	7.098	201.455	32.726	234.181	59.444	57.676
969	6.167	0.931	7.099	201.799	32.375	234.173	59.770	57.764
970	6.178	0.921	7.099	202.163	32.004	234.167	59.697	57.617
971	6.189	0.911	7.100	202.501	31.661	234.162	59.352	57.287
972	6.200	0.900	7.100	202.879	31.277	234.156	58.947	56.923
973	6.211	0.889	7.101	203.240	30.910	234.150	58.633	56.688
974	6.221	0.880	7.101	203.559	30.586	234.145	58.639	56.367
975	6.230	0.871	7.101	203.862	30.280	234.142	58.510	56.197
976	6.240	0.862	7.102	204.170	29.968	234.138	58.505	56.114
977	6.249	0.853	7.102	204.471	29.665	234.135	58.627	56.169
978	6.259	0.844	7.103	204.808	29.325	234.133	58.658	56.144
979	6.269	0.834	7.103	205.132	28.999	234.131	58.348	55.945
980	6.279	0.825	7.104	205.467	28.661	234.128	58.517	55.960
981	6.289	0.815	7.104	205.785	28.340	234.125	58.485	55.905
982	6.301	0.804	7.105	206.161	27.961	234.122	58.195	55.781
983	6.312	0.794	7.106	206.524	27.594	234.118	58.241	55.705
984	6.322	0.784	7.106	206.875	27.240	234.115	58.014	55.406
985	6.334	0.773	7.107	207.262	26.851	234.113	57.844	55.080
986	6.345	0.762	7.107	207.621	26.490	234.112	57.523	54.729
987	6.357	0.751	7.108	208.013	26.099	234.112	57.256	54.224
988	6.369	0.740	7.109	208.397	25.717	234.113	56.889	53.903
989	6.380	0.729	7.109	208.776	25.338	234.114	56.717	53.660
990	6.392	0.718	7.110	209.161	24.954	234.115	56.586	53.432
991	6.404	0.707	7.111	209.538	24.581	234.118	56.440	53.279
992	6.416	0.696	7.112	209.924	24.197	234.121	56.451	53.148
993	6.427	0.685	7.113	210.310	23.815	234.125	56.454	53.032
994	6.439	0.674	7.113	210.690	23.440	234.130	56.324	52.920
995	6.451	0.663	7.114	211.077	23.056	234.133	56.256	52.790
996	6.463	0.652	7.115	211.464	22.675	234.139	56.249	52.725
997	6.474	0.641	7.116	211.849	22.295	234.144	55.971	52.375
998	6.486	0.631	7.117	212.228	21.922	234.150	55.569	51.922
999	6.497	0.620	7.118	212.605	21.552	234.157	55.360	51.543
1000	6.509	0.609	7.118	212.980	21.184	234.164	54.958	51.052
1001	6.520	0.599	7.119	213.352	20.820	234.172	54.522	50.583
1002	6.532	0.589	7.120	213.725	20.456	234.181	54.138	50.147
1003	6.543	0.578	7.121	214.088	20.101	234.190	53.854	49.733
1004	6.554	0.568	7.122	214.453	19.747	234.200	53.716	49.536
1005	6.565	0.558	7.123	214.812	19.399	234.211	53.671	49.456
1006	6.575	0.549	7.124	215.150	19.071	234.221	53.536	49.190
1007	6.586	0.539	7.125	215.502	18.731	234.233	53.541	49.052
1008	6.597	0.529	7.126	215.863	18.383	234.246	53.232	48.695
1009	6.608	0.519	7.127	216.221	18.038	234.259	53.148	48.547
1010	6.619	0.509	7.128	216.576	17.697	234.274	52.998	48.406
1011	6.630	0.499	7.129	216.930	17.357	234.287	52.821	48.125
1012	6.641	0.490	7.130	217.285	17.017	234.302	52.444	47.683
1013	6.651	0.480	7.131	217.636	16.681	234.318	52.174	47.260
1014	6.662	0.470	7.132	217.985	16.349	234.334	51.794	46.898
1015	6.673	0.461	7.133	218.333	16.017	234.350	51.308	46.277
1016	6.683	0.452	7.134	218.672	15.695	234.367	51.007	45.975
1017	6.693	0.442	7.136	219.011	15.373	234.384	50.546	45.337
1018	6.703	0.433	7.137	219.343	15.060	234.403	50.094	44.881
1019	6.714	0.424	7.138	219.678	14.744	234.422	49.558	44.218
1020	6.723	0.416	7.139	219.998	14.443	234.441	49.296	43.832
1021	6.733	0.407	7.140	220.322	14.141	234.462	49.001	43.532
1022	6.743	0.398	7.141	220.645	13.839	234.484	48.624	43.069
1023	6.753	0.390	7.142	220.960	13.544	234.504	48.207	42.608
1024	6.762	0.381	7.144	221.275	13.251	234.526	47.917	42.064
1025	6.772	0.373	7.145	221.587	12.963	234.550	47.483	41.433
1026	6.782	0.365	7.146	221.900	12.676	234.576	46.991	40.796
1027	6.791	0.357	7.148	222.209	12.394	234.603	46.594	40.246
1028	6.800	0.349	7.149	222.514	12.116	234.631	46.082	39.760
1029	6.810	0.341	7.150	222.817	11.841	234.658	45.667	39.293
1030	6.819	0.333	7.152	223.114	11.572	234.686	45.483	38.949
1031	6.828	0.325	7.153	223.412	11.303	234.715	45.366	38.773
1032	6.837	0.318	7.154	223.707	11.037	234.744	45.413	38.700
1033	6.846	0.310	7.156	224.004	10.770	234.774	45.318	38.677
1034	6.855	0.302	7.157	224.296	10.508	234.804	45.217	38.486
1035	6.864	0.295	7.158	224.589	10.245	234.834	44.745	38.024
1036	6.873	0.287	7.160	224.880	9.985	234.865	43.961	37.508
1037	6.881	0.280	7.161	225.166	9.729	234.894	43.242	36.737
1038	6.890	0.273	7.163	225.444	9.479	234.923	42.674	36.238
1039	6.898	0.266	7.164	225.718	9.234	234.952	42.096	35.699
1040	6.907	0.259	7.165	225.991	8.991	234.981	41.928	35.324
1041	6.915	0.252	7.167	226.261	8.751	235.012	41.818	35.172
1042	6.923	0.245	7.168	226.531	8.513	235.043	41.582	34.756
1043	6.931	0.238	7.169	226.800	8.277	235.077	41.299	34.413
1044	6.939	0.231	7.171	227.064	8.045	235.109	40.924	34.104
1045	6.947	0.225	7.172	227.327	7.814	235.141	40.872	33.940
1046	6.955	0.218	7.174	227.588	7.586	235.174	40.686	33.615
1047	6.963	0.212	7.175	227.843	7.365	235.208	40.382	33.328
1048	6.971	0.206	7.177	228.098	7.144	235.242	39.961	32.879
1049	6.979	0.199	7.178	228.354	6.922	235.276	39.562	32.456
1050	6.986	0.193	7.179	228.606	6.704	235.310	39.008	31.919
1051	6.994	0.187	7.181	228.853	6.491	235.344	38.419	31.378
1052	7.002	0.181	7.182	229.097	6.281	235.378	37.934	30.949
1053	7.009	0.175	7.184	229.337	6.075	235.413	37.435	30.423
1054	7.016	0.169	7.185	229.573	5.874	235.447	37.152	30.122
1055	7.023	0.163	7.186	229.807	5.675	235.482	36.904	29.830
1056	7.030	0.158	7.188	230.040	5.478	235.517	36.892	29.673
1057	7.037	0.152	7.189	230.272	5.281	235.554	36.575	29.269
1058	7.044	0.146	7.191	230.503	5.087	235.590	36.124	28.827
1059	7.051	0.141	7.192	230.728	4.899	235.627	35.855	28.622
1060	7.058	0.136	7.194	230.945	4.717	235.661	35.575	28.289
1061	7.065	0.130	7.195	231.166	4.532	235.698	35.310	28.069
1062	7.071	0.125	7.197	231.381	4.352	235.733	34.995	27.760
1063	7.078	0.120	7.198	231.598	4.171	235.768	35.476	28.468
1064	7.085	0.115	7.199	231.814	3.987	235.802	36.530	29.941
1065	7.091	0.109	7.201	232.041	3.792	235.833	34.023	27.648
1066	7.098	0.104	7.202	232.252	3.613	235.864	30.987	24.607
1067	7.104	0.099	7.203	232.439	3.456	235.895	28.859	22.998
1068	7.109	0.095	7.204	232.616	3.308	235.924	27.586	21.726
1069	7.114	0.091	7.205	232.785	3.168	235.952	25.572	19.682
1070	7.119	0.088	7.206	232.932	3.048	235.980	25.589	19.491
1071	7.123	0.084	7.208	233.085	2.926	236.011	28.086	21.406
1072	7.129	0.080	7.209	233.256	2.788	236.044	29.753	22.972
1073	7.134	0.076	7.210	233.437	2.640	236.077	27.934	21.523
1074	7.139	0.072	7.211	233.605	2.505	236.110	26.910	20.854
1075	7.144	0.068	7.213	233.771	2.370	236.140	26.580	20.534
1076	7.149	0.065	7.214	233.927	2.242	236.169	26.624	20.462
1077	7.154	0.061	7.215	234.089	2.111	236.200	26.424	20.282
1078	7.159	0.057	7.216	234.248	1.982	236.230	25.833	19.813
1079	7.164	0.053	7.217	234.403	1.857	236.260	24.903	19.074
1080	7.168	0.050	7.218	234.553	1.736	236.289	23.805	18.182
1081	7.173	0.047	7.219	234.695	1.623	236.318	22.957	17.466
1082	7.177	0.044	7.220	234.828	1.516	236.344	22.514	17.172
1083	7.181	0.041	7.221	234.961	1.409	236.370	22.368	17.013
1084	7.185	0.037	7.222	235.096	1.302	236.397	21.990	16.694
1085	7.189	0.035	7.223	235.223	1.200	236.422	21.365	16.210
1086	7.193	0.032	7.224	235.350	1.098	236.448	20.970	15.892
1087	7.196	0.029	7.225	235.466	1.004	236.471	20.362	15.360
1088	7.200	0.026	7.226	235.583	0.913	236.495	19.773	14.871
1089	7.203	0.024	7.227	235.701	0.820	236.521	19.333	14.636
1090	7.207	0.021	7.228	235.814	0.729	236.543	18.923	14.357
1091	7.210	0.019	7.229	235.921	0.644	236.564	18.572	14.022
1092	7.213	0.016	7.229	236.031	0.556	236.587	18.059	13.626
1093	7.217	0.014	7.230	236.136	0.472	236.608	17.383	13.117
1094	7.219	0.012	7.231	236.226	0.400	236.626	16.695	12.612
1095	7.222	0.009	7.232	236.317	0.328	236.644	16.131	12.212
1096	7.225	0.007	7.232	236.401	0.260	236.662	15.940	12.091
1097	7.227	0.006	7.233	236.483	0.195	236.678	15.626	11.853
1098	7.230	0.004	7.234	236.575	0.122	236.697	15.098	11.422
1099	7.232	0.002	7.234	236.652	0.061	236.713	14.689	11.148
