Wavelength (nm) 	 Efficiency Div Wav 1 (%) 	 Efficiency Div Wav 2 (%) 	 Efficiency Div Wav total (%) 	 Jsc Div Wav 1 (A m^-2) 	 Jsc Div Wav 2 (A m^-2) 	 Jsc Div Wav total (A m^-2) 	 EQE Curve 1 (%) 	 EQE Curve 2 (%) 	Jsc 1 correction factor: 0.12747424180101746	Jsc 2 correction factor: 0.11138078088588836
400	0.000	11.892	11.892	0.000	241.850	241.850	14.124	25.882
401	0.001	11.888	11.890	0.048	241.772	241.820	15.055	28.075
402	0.003	11.884	11.887	0.103	241.683	241.786	15.145	28.702
403	0.005	11.879	11.884	0.161	241.588	241.749	14.847	28.444
404	0.006	11.875	11.881	0.215	241.497	241.712	14.425	27.922
405	0.008	11.870	11.878	0.269	241.406	241.675	14.494	27.980
406	0.009	11.866	11.875	0.323	241.316	241.639	14.630	28.449
407	0.011	11.861	11.872	0.375	241.227	241.602	15.044	29.270
408	0.012	11.857	11.869	0.428	241.137	241.565	15.178	29.922
409	0.014	11.852	11.866	0.484	241.040	241.525	15.343	30.587
410	0.016	11.847	11.863	0.546	240.933	241.479	15.515	30.901
411	0.017	11.842	11.860	0.599	240.841	241.440	15.474	31.634
412	0.019	11.837	11.856	0.659	240.735	241.394	15.576	32.048
413	0.021	11.832	11.852	0.723	240.620	241.343	15.643	32.007
414	0.023	11.826	11.849	0.784	240.510	241.294	15.736	32.555
415	0.024	11.821	11.845	0.845	240.399	241.244	15.553	32.540
416	0.026	11.815	11.841	0.909	240.283	241.192	15.812	33.401
417	0.028	11.809	11.837	0.975	240.160	241.136	16.477	33.853
418	0.030	11.803	11.833	1.043	240.038	241.081	16.057	34.349
419	0.032	11.797	11.829	1.106	239.919	241.025	16.111	34.766
420	0.034	11.791	11.825	1.173	239.793	240.966	15.788	34.381
421	0.035	11.785	11.821	1.233	239.678	240.911	15.699	34.505
422	0.037	11.779	11.816	1.302	239.547	240.848	15.702	35.146
423	0.039	11.772	11.812	1.369	239.414	240.783	16.068	35.410
424	0.041	11.766	11.807	1.437	239.284	240.720	16.108	36.157
425	0.043	11.759	11.803	1.504	239.151	240.655	15.623	35.648
426	0.045	11.753	11.798	1.572	239.016	240.588	15.672	36.716
427	0.047	11.746	11.793	1.638	238.881	240.519	16.151	37.390
428	0.049	11.739	11.788	1.704	238.746	240.450	16.011	37.327
429	0.051	11.733	11.784	1.771	238.610	240.381	15.799	36.953
430	0.053	11.727	11.779	1.832	238.485	240.317	15.785	37.920
431	0.054	11.722	11.776	1.880	238.383	240.263	16.189	39.838
432	0.055	11.717	11.772	1.926	238.285	240.211	16.301	39.411
433	0.058	11.709	11.766	2.003	238.122	240.125	16.388	39.568
434	0.060	11.701	11.761	2.075	237.969	240.045	15.962	39.555
435	0.062	11.694	11.756	2.140	237.828	239.968	16.546	40.958
436	0.064	11.686	11.750	2.216	237.667	239.882	16.434	40.583
437	0.066	11.678	11.744	2.297	237.491	239.788	16.161	40.129
438	0.068	11.669	11.737	2.379	237.312	239.691	16.410	41.610
439	0.071	11.661	11.731	2.453	237.150	239.602	17.112	43.323
440	0.073	11.653	11.726	2.527	236.986	239.513	17.162	42.659
441	0.075	11.644	11.719	2.612	236.800	239.412	16.983	42.684
442	0.078	11.635	11.712	2.696	236.616	239.312	17.170	41.932
443	0.080	11.625	11.705	2.787	236.424	239.210	17.775	44.440
444	0.083	11.615	11.698	2.882	236.215	239.097	17.663	44.982
445	0.086	11.605	11.690	2.975	236.009	238.984	17.732	45.099
446	0.088	11.594	11.683	3.072	235.793	238.865	18.399	45.522
447	0.091	11.585	11.675	3.163	235.596	238.759	18.322	46.117
448	0.094	11.573	11.667	3.266	235.369	238.635	18.940	47.116
449	0.097	11.562	11.659	3.374	235.134	238.508	18.766	46.230
450	0.100	11.550	11.651	3.481	234.902	238.383	19.271	48.360
451	0.103	11.538	11.641	3.596	234.650	238.246	18.446	46.062
452	0.107	11.526	11.632	3.711	234.401	238.112	18.078	44.720
453	0.110	11.514	11.624	3.818	234.168	237.986	18.444	46.914
454	0.113	11.503	11.616	3.920	233.941	237.861	19.112	48.121
455	0.116	11.491	11.607	4.033	233.691	237.725	20.042	49.593
456	0.119	11.478	11.598	4.152	233.434	237.586	20.301	49.802
457	0.123	11.465	11.588	4.277	233.167	237.444	20.463	50.552
458	0.127	11.452	11.578	4.404	232.893	237.297	20.584	50.156
459	0.130	11.438	11.569	4.529	232.627	237.156	20.445	49.848
460	0.134	11.425	11.559	4.654	232.361	237.016	20.682	50.941
461	0.137	11.412	11.550	4.779	232.092	236.871	21.425	52.219
462	0.141	11.398	11.539	4.914	231.805	236.719	21.399	51.178
463	0.145	11.384	11.529	5.051	231.519	236.570	21.380	51.045
464	0.149	11.370	11.519	5.188	231.233	236.421	21.260	50.024
465	0.153	11.357	11.510	5.321	230.960	236.281	21.364	49.587
466	0.157	11.343	11.500	5.452	230.693	236.145	21.183	49.956
467	0.161	11.330	11.491	5.586	230.417	236.003	21.459	50.814
468	0.164	11.317	11.481	5.716	230.148	235.864	21.711	50.463
469	0.168	11.303	11.471	5.854	229.869	235.722	21.895	50.844
470	0.172	11.289	11.461	5.993	229.586	235.578	22.971	52.734
471	0.176	11.275	11.452	6.134	229.303	235.437	22.531	51.704
472	0.181	11.261	11.442	6.276	229.019	235.294	21.031	49.099
473	0.185	11.247	11.432	6.416	228.734	235.150	22.875	52.777
474	0.189	11.233	11.421	6.561	228.440	235.001	23.900	54.510
475	0.193	11.217	11.411	6.717	228.131	234.848	22.638	52.453
476	0.198	11.202	11.400	6.870	227.823	234.692	22.541	52.008
477	0.202	11.188	11.390	7.016	227.526	234.543	23.739	54.208
478	0.206	11.172	11.379	7.172	227.216	234.387	23.781	54.315
479	0.211	11.157	11.368	7.334	226.894	234.227	23.696	54.450
480	0.216	11.141	11.356	7.492	226.575	234.067	23.180	52.704
481	0.220	11.125	11.346	7.650	226.261	233.911	22.580	51.290
482	0.225	11.110	11.335	7.804	225.955	233.759	23.328	53.327
483	0.229	11.095	11.324	7.965	225.634	233.599	23.931	54.635
484	0.234	11.079	11.313	8.128	225.309	233.437	24.346	54.498
485	0.239	11.063	11.301	8.291	224.989	233.280	24.505	54.936
486	0.243	11.047	11.290	8.455	224.666	233.122	24.638	55.336
487	0.247	11.034	11.281	8.589	224.403	232.993	24.976	56.275
488	0.252	11.019	11.271	8.742	224.103	232.845	26.674	59.903
489	0.257	11.002	11.259	8.921	223.753	232.673	27.885	60.993
490	0.262	10.986	11.247	9.095	223.418	232.513	28.083	61.333
491	0.267	10.967	11.234	9.293	223.040	232.333	28.322	61.571
492	0.273	10.949	11.222	9.484	222.676	232.160	28.380	63.288
493	0.278	10.932	11.210	9.668	222.318	231.986	29.602	64.228
494	0.284	10.912	11.196	9.873	221.928	231.801	29.844	63.831
495	0.290	10.894	11.184	10.076	221.549	231.624	29.850	64.226
496	0.296	10.874	11.170	10.291	221.143	231.434	30.152	64.141
497	0.302	10.855	11.157	10.499	220.758	231.257	28.771	62.588
498	0.308	10.836	11.144	10.701	220.372	231.074	29.297	62.805
499	0.314	10.817	11.131	10.903	219.996	230.899	30.999	65.814
500	0.320	10.798	11.118	11.116	219.601	230.716	32.230	67.746
501	0.326	10.778	11.104	11.338	219.193	230.530	31.734	67.079
502	0.332	10.759	11.091	11.550	218.801	230.351	32.613	67.476
503	0.339	10.739	11.078	11.770	218.405	230.175	33.950	70.280
504	0.345	10.718	11.063	12.008	217.973	229.981	34.705	70.368
505	0.352	10.698	11.050	12.236	217.569	229.805	31.746	66.776
506	0.358	10.678	11.036	12.461	217.157	229.617	33.066	67.439
507	0.366	10.656	11.022	12.705	216.721	229.427	34.531	69.091
508	0.373	10.636	11.008	12.949	216.297	229.246	32.139	65.154
509	0.379	10.616	10.995	13.171	215.905	229.076	30.570	62.752
510	0.385	10.597	10.982	13.392	215.506	228.899	31.070	63.499
511	0.392	10.577	10.969	13.613	215.113	228.726	30.260	60.921
512	0.398	10.558	10.956	13.832	214.728	228.560	32.365	65.638
513	0.405	10.537	10.942	14.072	214.302	228.374	33.566	67.496
514	0.412	10.517	10.929	14.308	213.889	228.197	32.551	65.457
515	0.418	10.498	10.916	14.531	213.496	228.027	34.451	69.514
516	0.425	10.477	10.902	14.776	213.065	227.840	34.793	69.791
517	0.432	10.455	10.887	15.024	212.628	227.652	35.271	70.198
518	0.438	10.438	10.876	15.231	212.269	227.500	38.280	75.224
519	0.446	10.416	10.861	15.487	211.828	227.315	36.939	71.775
520	0.452	10.396	10.848	15.728	211.420	227.147	37.002	71.919
521	0.460	10.374	10.834	15.990	210.973	226.963	37.522	72.369
522	0.468	10.351	10.819	16.262	210.516	226.778	37.553	70.448
523	0.476	10.329	10.805	16.540	210.061	226.601	38.657	72.853
524	0.484	10.307	10.791	16.810	209.616	226.426	38.141	71.886
525	0.492	10.284	10.776	17.098	209.143	226.241	36.664	70.308
526	0.500	10.261	10.761	17.373	208.682	226.055	37.880	71.825
527	0.508	10.239	10.746	17.650	208.224	225.874	39.017	73.579
528	0.515	10.218	10.733	17.900	207.813	225.713	40.270	74.665
529	0.523	10.195	10.718	18.194	207.335	225.530	39.745	73.905
530	0.532	10.171	10.703	18.499	206.840	225.339	40.614	74.095
531	0.541	10.147	10.688	18.800	206.360	225.160	40.737	73.692
532	0.550	10.122	10.672	19.117	205.857	224.975	40.866	73.062
533	0.559	10.098	10.657	19.432	205.365	224.797	41.535	73.909
534	0.567	10.076	10.643	19.719	204.919	224.638	41.383	73.986
535	0.576	10.053	10.629	20.026	204.441	224.467	42.371	75.755
536	0.585	10.028	10.613	20.345	203.942	224.286	41.122	73.891
537	0.595	10.003	10.598	20.669	203.433	224.101	42.528	75.907
538	0.604	9.979	10.583	20.978	202.949	223.928	44.236	77.876
539	0.613	9.953	10.567	21.319	202.426	223.744	45.109	77.185
540	0.623	9.929	10.552	21.659	201.918	223.577	45.826	78.258
541	0.633	9.904	10.537	21.992	201.421	223.413	47.303	78.891
542	0.642	9.880	10.523	22.323	200.938	223.261	50.286	81.975
543	0.653	9.853	10.507	22.707	200.391	223.098	49.921	83.336
544	0.664	9.826	10.491	23.083	199.842	222.925	49.630	82.318
545	0.675	9.799	10.474	23.472	199.278	222.750	47.868	80.901
546	0.686	9.772	10.458	23.839	198.736	222.575	48.078	80.509
547	0.696	9.746	10.442	24.204	198.202	222.406	49.392	80.616
548	0.707	9.719	10.426	24.583	197.660	222.243	50.047	82.190
549	0.718	9.693	10.411	24.958	197.122	222.080	51.606	83.384
550	0.730	9.665	10.394	25.360	196.555	221.915	52.627	84.261
551	0.741	9.637	10.378	25.764	195.989	221.753	53.051	85.188
552	0.753	9.609	10.362	26.173	195.415	221.588	52.534	84.940
553	0.765	9.580	10.345	26.587	194.829	221.417	53.692	87.058
554	0.777	9.551	10.328	26.999	194.246	221.245	51.448	83.263
555	0.788	9.523	10.312	27.403	193.674	221.078	51.588	83.104
556	0.800	9.495	10.295	27.812	193.099	220.911	51.555	82.657
557	0.812	9.467	10.279	28.216	192.533	220.749	52.281	83.355
558	0.823	9.440	10.263	28.614	191.978	220.592	54.591	86.386
559	0.835	9.411	10.246	29.040	191.389	220.429	54.313	84.672
560	0.847	9.384	10.231	29.443	190.841	220.284	55.581	86.949
561	0.859	9.356	10.215	29.862	190.268	220.131	56.515	87.921
562	0.872	9.325	10.198	30.315	189.653	219.967	54.117	84.678
563	0.884	9.298	10.182	30.728	189.088	219.815	54.065	84.953
564	0.896	9.269	10.165	31.156	188.500	219.656	56.744	87.884
565	0.909	9.239	10.148	31.600	187.898	219.498	57.624	88.335
566	0.922	9.209	10.131	32.055	187.289	219.344	61.723	92.769
567	0.935	9.180	10.115	32.515	186.685	219.200	62.429	92.029
568	0.950	9.148	10.098	33.013	186.043	219.056	60.585	91.720
569	0.964	9.117	10.080	33.494	185.407	218.901	60.450	90.231
570	0.977	9.087	10.064	33.960	184.797	218.758	59.436	89.401
571	0.990	9.057	10.047	34.421	184.194	218.614	61.335	91.737
572	1.004	9.027	10.031	34.882	183.591	218.473	61.261	90.581
573	1.018	8.996	10.014	35.368	182.963	218.331	63.776	94.074
574	1.032	8.964	9.996	35.879	182.305	218.184	66.602	96.333
575	1.047	8.931	9.979	36.409	181.634	218.043	64.475	94.211
576	1.062	8.900	9.962	36.913	180.992	217.904	63.252	93.328
577	1.076	8.868	9.945	37.403	180.359	217.762	62.288	91.956
578	1.090	8.837	9.927	37.902	179.715	217.617	59.587	86.989
579	1.104	8.808	9.912	38.362	179.128	217.490	60.601	88.295
580	1.117	8.778	9.896	38.839	178.522	217.361	61.627	89.546
581	1.132	8.747	9.879	39.335	177.893	217.228	63.861	92.152
582	1.146	8.715	9.862	39.850	177.244	217.093	66.548	94.380
583	1.162	8.682	9.844	40.395	176.567	216.963	64.873	93.081
584	1.178	8.649	9.826	40.936	175.890	216.826	64.427	93.046
585	1.193	8.616	9.809	41.470	175.216	216.686	62.498	90.780
586	1.208	8.583	9.791	41.985	174.563	216.548	62.398	89.751
587	1.222	8.552	9.775	42.488	173.930	216.418	63.442	90.566
588	1.237	8.520	9.758	43.012	173.276	216.289	64.707	92.491
589	1.253	8.488	9.741	43.536	172.621	216.158	65.738	94.480
590	1.266	8.459	9.725	43.998	172.041	216.039	67.348	95.886
591	1.280	8.429	9.709	44.500	171.416	215.916	62.479	88.429
592	1.295	8.398	9.693	45.001	170.797	215.798	63.422	89.166
593	1.309	8.368	9.677	45.499	170.185	215.685	64.304	90.649
594	1.324	8.337	9.661	46.013	169.553	215.566	63.674	89.631
595	1.338	8.307	9.645	46.519	168.931	215.450	63.243	88.334
596	1.353	8.277	9.629	47.018	168.322	215.340	62.510	86.892
597	1.367	8.246	9.614	47.527	167.704	215.231	62.285	86.529
598	1.382	8.216	9.598	48.036	167.087	215.123	63.028	87.247
599	1.397	8.186	9.582	48.543	166.473	215.017	63.920	88.913
600	1.411	8.155	9.566	49.058	165.846	214.904	64.854	89.274
601	1.427	8.123	9.550	49.590	165.206	214.796	65.314	89.958
602	1.442	8.092	9.534	50.119	164.570	214.689	65.014	89.204
603	1.457	8.061	9.518	50.638	163.947	214.585	64.343	88.286
604	1.472	8.030	9.502	51.164	163.315	214.480	65.011	89.382
605	1.488	7.998	9.486	51.705	162.666	214.371	64.845	89.695
606	1.503	7.966	9.469	52.245	162.013	214.259	65.306	89.844
607	1.519	7.934	9.453	52.791	161.358	214.149	63.625	87.659
608	1.534	7.903	9.437	53.322	160.718	214.040	62.547	85.787
609	1.549	7.872	9.421	53.846	160.090	213.936	61.387	83.869
610	1.564	7.842	9.406	54.358	159.479	213.837	60.128	82.447
611	1.578	7.812	9.391	54.855	158.884	213.738	61.151	83.553
612	1.593	7.783	9.375	55.362	158.279	213.641	63.724	87.052
613	1.608	7.751	9.359	55.899	157.637	213.536	66.427	91.530
614	1.624	7.718	9.343	56.451	156.972	213.423	68.504	94.026
615	1.640	7.686	9.326	57.004	156.308	213.312	67.723	92.003
616	1.656	7.653	9.309	57.574	155.632	213.206	65.781	89.097
617	1.672	7.621	9.293	58.112	154.996	213.108	62.908	85.497
618	1.686	7.592	9.278	58.619	154.395	213.014	60.572	81.956
619	1.701	7.562	9.263	59.126	153.795	212.921	59.152	80.221
620	1.715	7.533	9.249	59.627	153.201	212.828	58.539	79.329
621	1.730	7.504	9.234	60.123	152.613	212.736	60.873	82.702
622	1.745	7.474	9.218	60.645	151.995	212.639	65.201	88.521
623	1.760	7.442	9.203	61.183	151.356	212.539	68.041	92.414
624	1.776	7.410	9.186	61.741	150.695	212.436	68.770	92.870
625	1.793	7.377	9.170	62.306	150.029	212.334	67.135	90.815
626	1.808	7.345	9.154	62.854	149.382	212.235	64.616	86.930
627	1.823	7.315	9.138	63.381	148.761	212.143	63.501	85.274
628	1.839	7.284	9.123	63.913	148.136	212.049	62.593	84.242
629	1.853	7.255	9.108	64.410	147.552	211.962	63.255	84.885
630	1.868	7.225	9.093	64.934	146.938	211.872	63.758	85.167
631	1.883	7.195	9.078	65.454	146.331	211.785	63.798	85.507
632	1.898	7.165	9.063	65.984	145.711	211.695	64.931	86.543
633	1.913	7.135	9.048	66.503	145.106	211.609	65.126	86.778
634	1.929	7.103	9.033	67.059	144.460	211.519	65.362	87.657
635	1.945	7.072	9.017	67.609	143.816	211.424	65.875	88.128
636	1.961	7.039	9.001	68.172	143.158	211.330	65.940	88.175
637	1.977	7.008	8.985	68.724	142.513	211.237	65.636	87.661
638	1.994	6.975	8.968	69.291	141.851	211.142	65.367	86.657
639	2.010	6.942	8.952	69.861	141.191	211.052	64.610	85.596
640	2.026	6.911	8.937	70.421	140.542	210.963	64.344	85.338
641	2.042	6.879	8.921	70.971	139.904	210.876	64.093	85.295
642	2.058	6.848	8.906	71.521	139.266	210.787	65.224	86.695
643	2.074	6.816	8.890	72.080	138.616	210.696	65.584	86.884
644	2.090	6.784	8.874	72.649	137.958	210.607	66.072	87.534
645	2.107	6.751	8.858	73.222	137.295	210.517	65.770	87.064
646	2.123	6.718	8.841	73.799	136.629	210.427	64.369	85.291
647	2.139	6.687	8.826	74.346	135.995	210.340	63.857	84.733
648	2.154	6.656	8.811	74.885	135.370	210.255	63.085	83.618
649	2.170	6.626	8.796	75.414	134.756	210.170	63.289	83.926
650	2.184	6.597	8.781	75.929	134.159	210.088	64.694	85.076
651	2.200	6.567	8.766	76.460	133.548	210.008	66.066	86.916
652	2.216	6.534	8.750	77.039	132.882	209.921	66.565	87.740
653	2.233	6.502	8.735	77.601	132.235	209.836	65.680	86.840
654	2.249	6.470	8.719	78.175	131.572	209.747	64.915	85.893
655	2.265	6.438	8.703	78.733	130.926	209.659	63.619	84.468
656	2.280	6.408	8.688	79.256	130.320	209.576	62.704	83.050
657	2.293	6.382	8.675	79.708	129.796	209.505	63.896	84.508
658	2.307	6.355	8.662	80.191	129.238	209.430	64.578	85.213
659	2.323	6.324	8.647	80.737	128.609	209.346	65.165	85.746
660	2.339	6.292	8.631	81.293	127.970	209.263	66.348	87.394
661	2.355	6.260	8.615	81.864	127.312	209.176	65.069	86.086
662	2.371	6.228	8.600	82.421	126.668	209.089	64.067	84.761
663	2.387	6.197	8.584	82.967	126.037	209.004	63.474	84.358
664	2.402	6.167	8.569	83.507	125.409	208.916	62.490	83.334
665	2.418	6.136	8.554	84.045	124.783	208.828	62.594	82.907
666	2.434	6.104	8.538	84.597	124.144	208.741	63.947	84.204
667	2.450	6.072	8.522	85.162	123.495	208.656	65.210	85.992
668	2.467	6.040	8.506	85.734	122.835	208.569	65.594	86.084
669	2.483	6.007	8.491	86.310	122.174	208.484	65.690	86.260
670	2.500	5.974	8.474	86.898	121.500	208.398	65.448	85.727
671	2.517	5.942	8.458	87.479	120.834	208.313	63.313	83.328
672	2.533	5.910	8.443	88.039	120.191	208.230	63.018	82.672
673	2.549	5.879	8.428	88.592	119.557	208.149	63.581	83.474
674	2.565	5.847	8.412	89.155	118.911	208.067	63.084	82.525
675	2.581	5.816	8.397	89.710	118.276	207.986	64.440	84.240
676	2.597	5.784	8.381	90.273	117.633	207.906	64.899	84.864
677	2.614	5.752	8.365	90.851	116.973	207.824	63.888	83.646
678	2.630	5.720	8.350	91.416	116.327	207.743	63.616	83.256
679	2.646	5.688	8.335	91.979	115.683	207.662	62.928	82.102
680	2.662	5.657	8.319	92.532	115.053	207.585	62.207	81.005
681	2.678	5.626	8.304	93.084	114.425	207.509	63.301	82.203
682	2.694	5.595	8.289	93.643	113.791	207.434	63.885	82.728
683	2.710	5.564	8.274	94.211	113.147	207.358	63.763	82.682
684	2.727	5.532	8.259	94.771	112.514	207.284	63.738	82.576
685	2.743	5.501	8.244	95.327	111.884	207.211	63.474	81.883
686	2.759	5.471	8.229	95.885	111.255	207.140	62.022	80.083
687	2.774	5.441	8.215	96.419	110.652	207.071	61.020	78.654
688	2.785	5.420	8.205	96.800	110.224	207.024	62.643	80.671
689	2.798	5.395	8.193	97.253	109.715	206.967	61.865	79.833
690	2.811	5.370	8.181	97.704	109.206	206.909	62.630	80.411
691	2.825	5.344	8.168	98.179	108.672	206.851	63.960	81.900
692	2.839	5.316	8.155	98.688	108.103	206.791	63.933	81.214
693	2.854	5.287	8.141	99.211	107.523	206.733	63.420	80.539
694	2.869	5.259	8.128	99.726	106.951	206.677	63.375	80.475
695	2.884	5.231	8.115	100.237	106.384	206.621	63.345	80.815
696	2.899	5.202	8.101	100.757	105.804	206.561	63.742	81.148
697	2.914	5.174	8.088	101.281	105.220	206.501	64.378	82.358
698	2.930	5.143	8.073	101.843	104.591	206.434	64.904	82.169
699	2.946	5.112	8.059	102.401	103.973	206.374	64.160	81.227
700	2.962	5.083	8.045	102.941	103.376	206.316	63.574	80.527
701	2.977	5.054	8.031	103.471	102.789	206.260	63.858	80.607
702	2.992	5.026	8.018	104.000	102.205	206.205	63.619	80.703
703	3.007	4.997	8.004	104.528	101.620	206.148	64.363	81.751
704	3.023	4.967	7.990	105.067	101.021	206.088	65.654	83.504
705	3.039	4.936	7.975	105.633	100.393	206.026	65.156	82.638
706	3.055	4.906	7.961	106.200	99.765	205.965	63.778	80.787
707	3.071	4.876	7.947	106.751	99.156	205.906	63.837	80.736
708	3.087	4.846	7.933	107.303	98.545	205.848	63.913	80.784
709	3.103	4.816	7.919	107.852	97.939	205.791	62.753	79.175
710	3.119	4.786	7.905	108.396	97.339	205.735	62.632	79.212
711	3.134	4.756	7.891	108.945	96.733	205.678	65.658	83.503
712	3.151	4.725	7.876	109.516	96.098	205.614	66.212	83.214
713	3.167	4.694	7.861	110.092	95.464	205.556	65.012	81.897
714	3.183	4.664	7.847	110.649	94.851	205.500	64.278	80.709
715	3.199	4.634	7.833	111.206	94.240	205.446	63.969	80.153
716	3.215	4.605	7.820	111.741	93.653	205.395	65.364	82.064
717	3.231	4.575	7.806	112.295	93.046	205.341	66.235	83.496
718	3.245	4.548	7.793	112.788	92.503	205.291	67.173	84.136
719	3.258	4.523	7.782	113.253	91.994	205.247	67.531	84.692
720	3.270	4.501	7.771	113.674	91.533	205.207	66.496	83.459
721	3.283	4.477	7.760	114.116	91.047	205.163	66.065	83.008
722	3.297	4.451	7.748	114.601	90.515	205.115	65.738	82.290
723	3.313	4.421	7.734	115.153	89.912	205.065	65.187	81.882
724	3.327	4.394	7.721	115.656	89.359	205.015	67.052	83.807
725	3.341	4.368	7.709	116.137	88.834	204.971	68.282	85.147
726	3.355	4.342	7.697	116.619	88.309	204.928	68.426	85.440
727	3.370	4.315	7.685	117.122	87.760	204.882	68.361	85.645
728	3.384	4.288	7.672	117.628	87.207	204.835	67.030	84.165
729	3.398	4.262	7.660	118.105	86.684	204.789	66.294	83.507
730	3.412	4.237	7.648	118.579	86.162	204.741	66.256	83.871
731	3.426	4.209	7.635	119.092	85.595	204.687	67.089	84.655
732	3.440	4.182	7.622	119.584	85.051	204.635	68.598	86.240
733	3.456	4.153	7.609	120.125	84.456	204.581	69.007	86.723
734	3.472	4.122	7.594	120.693	83.833	204.526	69.111	86.247
735	3.489	4.091	7.580	121.282	83.190	204.472	67.846	85.004
736	3.506	4.060	7.566	121.850	82.568	204.418	67.050	84.186
737	3.522	4.030	7.551	122.408	81.955	204.364	67.362	84.672
738	3.538	3.999	7.537	122.969	81.338	204.307	67.086	84.840
739	3.554	3.968	7.523	123.539	80.708	204.247	68.504	86.469
740	3.571	3.938	7.508	124.106	80.082	204.188	69.230	87.461
741	3.587	3.906	7.493	124.691	79.437	204.128	68.436	86.698
742	3.604	3.874	7.479	125.270	78.796	204.067	68.075	85.954
743	3.621	3.843	7.464	125.846	78.160	204.007	67.422	84.543
744	3.637	3.812	7.449	126.429	77.523	203.952	66.918	84.483
745	3.654	3.780	7.434	127.013	76.879	203.892	67.866	85.140
746	3.671	3.748	7.420	127.606	76.230	203.836	68.152	85.526
747	3.688	3.716	7.404	128.201	75.576	203.777	68.865	86.311
748	3.706	3.684	7.389	128.804	74.916	203.720	69.299	86.683
749	3.723	3.651	7.374	129.405	74.258	203.663	68.646	86.329
750	3.740	3.619	7.359	130.003	73.602	203.605	67.837	85.427
751	3.757	3.587	7.344	130.595	72.951	203.546	67.580	84.889
752	3.774	3.556	7.330	131.179	72.310	203.488	67.528	85.157
753	3.791	3.524	7.315	131.769	71.659	203.428	68.212	86.122
754	3.808	3.491	7.299	132.360	71.006	203.367	68.487	86.462
755	3.825	3.459	7.284	132.966	70.339	203.305	68.629	86.117
756	3.843	3.426	7.269	133.568	69.679	203.246	68.705	86.621
757	3.860	3.394	7.254	134.165	69.020	203.186	67.427	85.068
758	3.877	3.362	7.239	134.753	68.372	203.125	66.815	84.131
759	3.894	3.330	7.224	135.336	67.731	203.066	66.794	84.241
760	3.910	3.300	7.210	135.904	67.105	203.009	66.878	84.247
761	3.914	3.293	7.206	136.033	66.962	202.995	67.154	84.246
762	3.916	3.289	7.204	136.108	66.880	202.988	67.884	85.105
763	3.926	3.270	7.196	136.446	66.510	202.956	67.798	84.996
764	3.931	3.260	7.191	136.633	66.305	202.938	67.222	84.152
765	3.939	3.246	7.185	136.897	66.017	202.914	66.786	83.785
766	3.948	3.228	7.176	137.230	65.651	202.881	66.180	82.949
767	3.959	3.207	7.166	137.621	65.222	202.844	66.476	83.364
768	3.973	3.182	7.155	138.090	64.708	202.798	66.719	83.771
769	3.988	3.153	7.141	138.627	64.119	202.746	66.727	83.724
770	4.004	3.123	7.127	139.170	63.523	202.693	66.818	83.744
771	4.020	3.093	7.113	139.731	62.909	202.640	66.755	83.829
772	4.036	3.063	7.099	140.297	62.287	202.584	66.150	83.426
773	4.053	3.032	7.085	140.864	61.663	202.527	65.948	82.681
774	4.069	3.002	7.070	141.430	61.042	202.472	65.655	82.264
775	4.085	2.971	7.056	141.995	60.424	202.419	65.472	82.525
776	4.101	2.941	7.042	142.558	59.804	202.362	65.832	82.661
777	4.118	2.910	7.028	143.126	59.181	202.307	65.836	83.229
778	4.134	2.879	7.013	143.694	58.554	202.248	65.550	83.113
779	4.150	2.848	6.999	144.260	57.927	202.187	65.087	82.545
780	4.167	2.818	6.984	144.823	57.303	202.127	64.251	81.714
781	4.182	2.788	6.970	145.374	56.691	202.065	64.040	81.151
782	4.198	2.758	6.956	145.925	56.081	202.006	63.985	81.270
783	4.214	2.728	6.942	146.476	55.471	201.947	64.432	81.476
784	4.230	2.697	6.927	147.030	54.858	201.888	64.586	82.050
785	4.246	2.667	6.913	147.582	54.246	201.828	64.836	81.985
786	4.262	2.637	6.899	148.137	53.633	201.770	64.476	81.771
787	4.278	2.607	6.885	148.694	53.015	201.709	63.776	81.297
788	4.293	2.577	6.871	149.235	52.411	201.647	63.194	80.615
789	4.309	2.548	6.857	149.768	51.818	201.586	62.864	80.279
790	4.324	2.519	6.843	150.299	51.226	201.525	63.154	80.464
791	4.339	2.491	6.830	150.811	50.655	201.466	63.311	80.647
792	4.354	2.462	6.816	151.336	50.070	201.406	63.360	80.776
793	4.369	2.433	6.802	151.858	49.490	201.347	62.968	80.384
794	4.384	2.405	6.789	152.371	48.917	201.289	62.124	79.595
795	4.398	2.377	6.776	152.884	48.344	201.227	61.763	79.139
796	4.413	2.349	6.762	153.394	47.773	201.167	61.220	78.389
797	4.427	2.322	6.749	153.889	47.219	201.108	61.146	77.953
798	4.442	2.294	6.736	154.396	46.655	201.051	61.446	78.701
799	4.457	2.266	6.722	154.909	46.079	200.989	61.887	78.864
800	4.471	2.238	6.709	155.418	45.514	200.931	61.904	79.042
801	4.486	2.210	6.696	155.921	44.952	200.874	61.399	78.567
802	4.500	2.183	6.683	156.427	44.386	200.814	60.886	77.916
803	4.515	2.155	6.670	156.930	43.825	200.755	60.497	77.253
804	4.529	2.128	6.657	157.420	43.277	200.697	60.450	77.398
805	4.543	2.101	6.644	157.918	42.721	200.639	60.956	77.858
806	4.557	2.074	6.631	158.408	42.173	200.582	61.330	78.171
807	4.572	2.046	6.618	158.922	41.602	200.524	61.143	77.684
808	4.587	2.018	6.605	159.429	41.038	200.468	61.010	77.544
809	4.601	1.990	6.592	159.936	40.477	200.412	60.543	76.950
810	4.615	1.964	6.579	160.426	39.932	200.359	60.056	76.223
811	4.629	1.937	6.566	160.913	39.392	200.305	60.036	76.269
812	4.643	1.910	6.554	161.400	38.852	200.252	60.250	76.242
813	4.657	1.884	6.542	161.877	38.324	200.201	60.745	76.849
814	4.671	1.859	6.529	162.350	37.800	200.150	61.110	77.265
815	4.683	1.835	6.519	162.778	37.327	200.105	60.887	77.019
816	4.695	1.812	6.508	163.201	36.859	200.061	60.738	76.817
817	4.707	1.791	6.498	163.595	36.425	200.020	59.884	75.570
818	4.718	1.770	6.488	163.993	35.987	199.980	59.571	75.115
819	4.729	1.749	6.478	164.375	35.566	199.942	60.070	75.597
820	4.741	1.726	6.467	164.799	35.101	199.899	60.276	75.752
821	4.753	1.704	6.457	165.204	34.655	199.859	60.169	75.603
822	4.766	1.679	6.445	165.673	34.140	199.814	60.041	75.489
823	4.779	1.655	6.434	166.121	33.649	199.770	59.670	74.691
824	4.788	1.638	6.426	166.437	33.304	199.741	59.536	74.509
825	4.801	1.614	6.415	166.874	32.826	199.700	59.754	74.745
826	4.814	1.590	6.404	167.329	32.328	199.657	59.606	74.332
827	4.827	1.566	6.393	167.766	31.852	199.618	59.767	74.631
828	4.840	1.541	6.381	168.230	31.346	199.576	60.703	75.350
829	4.852	1.520	6.371	168.638	30.904	199.542	61.101	75.495
830	4.865	1.496	6.360	169.087	30.419	199.506	60.784	75.463
831	4.877	1.472	6.350	169.527	29.941	199.468	60.495	74.663
832	4.890	1.449	6.339	169.969	29.464	199.433	59.909	73.652
833	4.902	1.426	6.329	170.395	29.007	199.402	59.889	73.508
834	4.915	1.402	6.318	170.849	28.519	199.368	60.305	73.842
835	4.928	1.379	6.307	171.296	28.040	199.336	60.499	73.651
836	4.942	1.354	6.296	171.778	27.527	199.305	60.568	73.122
837	4.956	1.329	6.285	172.247	27.032	199.279	60.302	72.450
838	4.970	1.304	6.274	172.733	26.523	199.256	59.764	71.508
839	4.983	1.280	6.263	173.209	26.025	199.235	59.916	71.230
840	4.997	1.255	6.252	173.689	25.527	199.216	59.768	70.628
841	5.011	1.231	6.242	174.174	25.026	199.201	59.943	70.613
842	5.025	1.206	6.231	174.660	24.527	199.187	60.421	71.125
843	5.039	1.182	6.220	175.143	24.030	199.174	60.798	71.123
844	5.053	1.157	6.210	175.634	23.528	199.162	61.216	71.419
845	5.067	1.133	6.200	176.120	23.034	199.153	61.205	71.151
846	5.081	1.108	6.189	176.621	22.525	199.145	61.036	70.574
847	5.096	1.083	6.178	177.122	22.018	199.139	60.939	70.166
848	5.110	1.059	6.168	177.610	21.528	199.138	60.788	69.513
849	5.124	1.035	6.158	178.097	21.041	199.138	60.988	69.215
850	5.138	1.011	6.149	178.584	20.559	199.142	61.353	69.042
851	5.151	0.989	6.140	179.029	20.122	199.151	61.782	69.034
852	5.165	0.966	6.131	179.518	19.644	199.162	61.626	68.417
853	5.179	0.943	6.121	180.004	19.173	199.177	61.438	67.795
854	5.193	0.920	6.112	180.486	18.709	199.194	61.232	67.303
855	5.205	0.900	6.105	180.910	18.301	199.211	61.311	66.766
856	5.218	0.879	6.096	181.367	17.867	199.233	61.772	66.453
857	5.232	0.856	6.088	181.857	17.405	199.263	62.118	66.524
858	5.247	0.833	6.079	182.361	16.934	199.295	62.397	66.344
859	5.261	0.810	6.071	182.868	16.463	199.331	62.288	65.393
860	5.276	0.787	6.062	183.374	15.999	199.373	61.988	64.439
861	5.290	0.764	6.054	183.878	15.542	199.420	62.100	63.772
862	5.305	0.742	6.047	184.381	15.090	199.471	61.988	63.170
863	5.319	0.720	6.039	184.889	14.638	199.526	62.226	62.335
864	5.334	0.698	6.032	185.401	14.189	199.590	62.507	61.958
865	5.348	0.676	6.025	185.906	13.751	199.657	62.233	60.937
866	5.363	0.655	6.018	186.402	13.328	199.730	61.855	59.952
867	5.375	0.637	6.013	186.836	12.960	199.797	62.082	59.322
868	5.389	0.618	6.007	187.307	12.567	199.874	62.118	58.489
869	5.403	0.598	6.001	187.800	12.161	199.961	61.982	57.335
870	5.417	0.579	5.996	188.290	11.765	200.055	62.552	56.784
871	5.432	0.559	5.990	188.793	11.366	200.160	62.534	55.650
872	5.446	0.540	5.986	189.290	10.980	200.270	62.375	54.870
873	5.460	0.521	5.981	189.793	10.593	200.386	62.705	54.131
874	5.475	0.502	5.977	190.294	10.216	200.509	62.737	53.278
875	5.489	0.484	5.973	190.787	9.849	200.636	62.762	52.099
876	5.503	0.467	5.970	191.274	9.496	200.770	62.542	50.991
877	5.517	0.449	5.967	191.772	9.141	200.913	62.508	50.042
878	5.532	0.432	5.964	192.273	8.790	201.063	62.494	49.159
879	5.546	0.415	5.961	192.773	8.447	201.220	62.292	47.941
880	5.560	0.399	5.959	193.264	8.117	201.381	62.272	46.993
881	5.574	0.383	5.958	193.756	7.793	201.549	62.532	46.021
882	5.588	0.368	5.956	194.235	7.485	201.720	62.274	44.863
883	5.602	0.353	5.955	194.725	7.176	201.901	62.350	43.731
884	5.616	0.338	5.954	195.214	6.877	202.091	62.513	42.823
885	5.630	0.324	5.954	195.707	6.581	202.289	62.506	41.741
886	5.645	0.309	5.954	196.207	6.290	202.497	62.535	40.841
887	5.659	0.296	5.954	196.689	6.015	202.703	62.304	39.732
888	5.673	0.283	5.955	197.171	5.746	202.917	62.405	38.768
889	5.687	0.270	5.956	197.660	5.481	203.141	62.647	37.733
890	5.701	0.257	5.958	198.159	5.219	203.378	62.600	36.754
891	5.715	0.244	5.959	198.652	4.966	203.619	62.389	35.699
892	5.729	0.232	5.961	199.145	4.720	203.866	62.761	34.644
893	5.743	0.221	5.964	199.632	4.485	204.118	62.904	34.001
894	5.757	0.210	5.967	200.103	4.264	204.366	63.451	33.260
895	5.770	0.199	5.969	200.565	4.052	204.617	63.461	32.127
896	5.783	0.190	5.973	201.009	3.856	204.865	63.504	31.247
897	5.795	0.181	5.976	201.426	3.677	205.103	63.628	30.342
898	5.806	0.173	5.979	201.792	3.524	205.316	63.786	29.301
899	5.817	0.166	5.982	202.187	3.366	205.553	63.507	28.394
900	5.826	0.160	5.985	202.489	3.248	205.737	63.193	27.370
901	5.837	0.152	5.989	202.894	3.094	205.989	63.040	26.421
902	5.847	0.146	5.993	203.222	2.974	206.196	63.153	25.678
903	5.857	0.140	5.997	203.588	2.844	206.431	63.233	24.840
904	5.868	0.133	6.002	203.966	2.713	206.680	63.108	24.000
905	5.881	0.126	6.007	204.429	2.560	206.989	63.032	23.041
906	5.894	0.119	6.013	204.877	2.417	207.294	62.519	22.157
907	5.906	0.112	6.019	205.299	2.287	207.585	63.051	21.559
908	5.917	0.107	6.024	205.650	2.182	207.832	62.976	20.881
909	5.927	0.102	6.029	206.010	2.078	208.088	63.227	20.122
910	5.938	0.097	6.035	206.399	1.970	208.369	63.654	19.584
911	5.948	0.092	6.040	206.748	1.877	208.625	63.830	18.882
912	5.959	0.088	6.046	207.123	1.780	208.903	63.683	18.182
913	5.970	0.083	6.053	207.508	1.684	209.192	63.585	17.517
914	5.980	0.079	6.059	207.859	1.599	209.459	63.139	16.755
915	5.990	0.075	6.065	208.208	1.519	209.727	63.128	16.059
916	6.001	0.071	6.072	208.585	1.436	210.021	63.238	15.540
917	6.010	0.067	6.077	208.907	1.367	210.274	63.274	15.015
918	6.022	0.063	6.085	209.315	1.282	210.597	63.509	14.464
919	6.032	0.060	6.091	209.648	1.215	210.863	62.961	13.842
920	6.043	0.056	6.099	210.060	1.136	211.196	63.113	13.216
921	6.055	0.052	6.107	210.475	1.060	211.536	63.140	12.731
922	6.068	0.048	6.116	210.911	0.983	211.895	62.646	12.176
923	6.079	0.045	6.124	211.301	0.918	212.219	62.549	11.694
924	6.091	0.042	6.133	211.716	0.850	212.565	62.812	11.268
925	6.103	0.039	6.141	212.118	0.786	212.905	62.763	10.816
926	6.114	0.036	6.150	212.516	0.726	213.242	62.693	10.368
927	6.125	0.033	6.158	212.910	0.669	213.579	62.327	9.900
928	6.138	0.030	6.168	213.347	0.608	213.955	62.159	9.468
929	6.147	0.028	6.175	213.676	0.565	214.241	62.060	9.031
930	6.156	0.026	6.182	213.983	0.526	214.509	61.699	8.631
931	6.163	0.024	6.188	214.223	0.497	214.720	61.736	8.292
932	6.170	0.023	6.193	214.450	0.470	214.920	61.617	7.928
933	6.175	0.022	6.197	214.618	0.451	215.069	61.423	7.551
934	6.179	0.021	6.200	214.757	0.437	215.194	61.371	7.206
935	6.181	0.021	6.202	214.837	0.429	215.266	61.012	6.852
936	6.185	0.020	6.205	214.976	0.415	215.392	60.698	6.544
937	6.187	0.020	6.207	215.066	0.407	215.472	60.521	6.236
938	6.190	0.020	6.210	215.156	0.399	215.555	60.249	5.932
939	6.193	0.019	6.212	215.267	0.389	215.656	60.698	5.685
940	6.200	0.018	6.218	215.488	0.371	215.858	60.877	5.456
941	6.207	0.017	6.224	215.749	0.351	216.100	60.655	5.178
942	6.213	0.016	6.230	215.955	0.335	216.291	60.553	4.922
943	6.219	0.016	6.235	216.180	0.320	216.499	60.247	4.670
944	6.224	0.015	6.239	216.333	0.310	216.642	59.932	4.443
945	6.228	0.015	6.243	216.490	0.300	216.789	59.869	4.236
946	6.234	0.014	6.248	216.691	0.287	216.978	59.689	4.023
947	6.237	0.014	6.251	216.798	0.281	217.079	59.600	3.835
948	6.243	0.013	6.256	217.001	0.270	217.270	59.460	3.648
949	6.247	0.013	6.260	217.151	0.262	217.413	59.209	3.449
950	6.255	0.012	6.267	217.420	0.248	217.668	58.931	3.278
951	6.257	0.012	6.270	217.500	0.245	217.745	58.821	3.109
952	6.265	0.011	6.276	217.763	0.233	217.996	58.754	2.943
953	6.269	0.011	6.280	217.910	0.226	218.136	58.961	2.808
954	6.275	0.011	6.285	218.097	0.218	218.315	59.051	2.674
955	6.281	0.010	6.292	218.329	0.209	218.538	58.962	2.537
956	6.287	0.010	6.297	218.515	0.203	218.718	58.981	2.420
957	6.292	0.010	6.301	218.695	0.196	218.891	58.664	2.285
958	6.296	0.009	6.305	218.843	0.190	219.033	58.420	2.163
959	6.303	0.009	6.312	219.093	0.183	219.275	58.196	2.050
960	6.309	0.009	6.318	219.295	0.176	219.471	58.012	1.937
961	6.316	0.008	6.324	219.522	0.169	219.691	57.923	1.839
962	6.323	0.008	6.331	219.771	0.163	219.933	57.852	1.743
963	6.330	0.008	6.337	220.009	0.156	220.165	57.846	1.654
964	6.337	0.007	6.345	220.282	0.149	220.431	57.913	1.570
965	6.345	0.007	6.352	220.529	0.144	220.673	57.665	1.483
966	6.352	0.007	6.359	220.801	0.138	220.939	57.525	1.400
967	6.360	0.007	6.367	221.071	0.133	221.203	57.640	1.334
968	6.368	0.006	6.374	221.342	0.127	221.469	57.676	1.260
969	6.378	0.006	6.384	221.694	0.120	221.815	57.764	1.197
970	6.389	0.006	6.394	222.065	0.114	222.179	57.617	1.136
971	6.399	0.005	6.404	222.408	0.108	222.516	57.287	1.074
972	6.410	0.005	6.415	222.792	0.101	222.893	56.923	1.011
973	6.420	0.005	6.425	223.159	0.096	223.255	56.688	0.955
974	6.430	0.004	6.434	223.483	0.091	223.574	56.367	0.904
975	6.438	0.004	6.443	223.789	0.087	223.876	56.197	0.853
976	6.447	0.004	6.451	224.101	0.082	224.183	56.114	0.807
977	6.456	0.004	6.460	224.404	0.079	224.483	56.169	0.767
978	6.466	0.004	6.470	224.743	0.075	224.818	56.144	0.727
979	6.475	0.004	6.479	225.070	0.071	225.141	55.945	0.684
980	6.485	0.003	6.488	225.408	0.068	225.476	55.960	0.650
981	6.494	0.003	6.497	225.729	0.065	225.793	55.905	0.615
982	6.505	0.003	6.508	226.107	0.061	226.169	55.781	0.581
983	6.516	0.003	6.519	226.475	0.058	226.532	55.705	0.551
984	6.526	0.003	6.529	226.829	0.055	226.884	55.406	0.522
985	6.537	0.003	6.540	227.218	0.051	227.269	55.080	0.493
986	6.547	0.002	6.550	227.578	0.048	227.626	54.729	0.465
987	6.559	0.002	6.561	227.970	0.045	228.014	54.224	0.440
988	6.570	0.002	6.572	228.352	0.042	228.395	53.903	0.415
989	6.581	0.002	6.583	228.731	0.040	228.771	53.660	0.393
990	6.592	0.002	6.593	229.115	0.038	229.152	53.432	0.372
991	6.602	0.002	6.604	229.488	0.036	229.524	53.279	0.348
992	6.613	0.002	6.615	229.872	0.033	229.905	53.148	0.333
993	6.624	0.002	6.626	230.254	0.031	230.285	53.032	0.316
994	6.635	0.001	6.637	230.629	0.029	230.658	52.920	0.299
995	6.646	0.001	6.648	231.013	0.027	231.039	52.790	0.284
996	6.657	0.001	6.658	231.394	0.025	231.418	52.725	0.270
997	6.668	0.001	6.669	231.774	0.022	231.796	52.375	0.255
998	6.679	0.001	6.680	232.147	0.021	232.168	51.922	0.241
999	6.689	0.001	6.690	232.517	0.020	232.537	51.543	0.228
1000	6.700	0.001	6.701	232.885	0.019	232.904	51.052	0.216
1001	6.711	0.001	6.711	233.249	0.018	233.266	50.583	0.204
1002	6.721	0.001	6.722	233.613	0.017	233.630	50.147	0.194
1003	6.731	0.001	6.732	233.967	0.016	233.983	49.733	0.184
1004	6.741	0.001	6.742	234.322	0.014	234.336	49.536	0.174
1005	6.751	0.001	6.752	234.670	0.013	234.683	49.456	0.166
1006	6.761	0.001	6.761	234.997	0.012	235.010	49.190	0.157
1007	6.771	0.001	6.771	235.338	0.011	235.349	49.052	0.150
1008	6.781	0.000	6.781	235.686	0.010	235.696	48.695	0.142
1009	6.791	0.000	6.791	236.031	0.009	236.040	48.547	0.135
1010	6.800	0.000	6.801	236.372	0.008	236.379	48.406	0.129
1011	6.810	0.000	6.811	236.712	0.007	236.719	48.125	0.122
1012	6.820	0.000	6.820	237.052	0.006	237.058	47.683	0.116
1013	6.830	0.000	6.830	237.388	0.004	237.392	47.260	0.111
1014	6.839	0.000	6.839	237.720	0.003	237.724	46.898	0.105
1015	6.849	0.000	6.849	238.052	0.002	238.054	46.277	0.100
1016	6.858	0.000	6.858	238.374	0.001	238.375	45.975	0.095
1017	6.867	0.000	6.867	238.696	0.000	238.696	45.337	0.090
1018	6.876	0.000	6.876	239.009	0.000	239.009	44.881	0.086
1019	6.885	0.000	6.885	239.325	0.000	239.325	44.218	0.082
1020	6.894	0.000	6.894	239.626	0.000	239.626	43.832	0.078
1021	6.903	0.000	6.903	239.928	0.000	239.928	43.532	0.074
1022	6.911	0.000	6.911	240.230	0.000	240.230	43.069	0.071
1023	6.920	0.000	6.920	240.525	0.000	240.525	42.608	0.067
1024	6.928	0.000	6.928	240.818	0.000	240.818	42.064	0.064
1025	6.937	0.000	6.937	241.106	0.000	241.106	41.433	0.061
1026	6.945	0.000	6.945	241.393	0.000	241.393	40.796	0.059
1027	6.953	0.000	6.953	241.675	0.000	241.675	40.246	0.056
1028	6.961	0.000	6.961	241.952	0.000	241.952	39.760	0.053
1029	6.969	0.000	6.969	242.228	0.000	242.228	39.293	0.051
1030	6.977	0.000	6.977	242.497	0.000	242.497	38.949	0.048
1031	6.984	0.000	6.984	242.766	0.000	242.766	38.773	0.047
1032	6.992	0.000	6.992	243.032	0.000	243.032	38.700	0.045
1033	7.000	0.000	7.000	243.299	0.000	243.299	38.677	0.043
1034	7.007	0.000	7.007	243.561	0.000	243.561	38.486	0.041
1035	7.015	0.000	7.015	243.824	0.000	243.824	38.024	0.039
1036	7.022	0.000	7.022	244.084	0.000	244.084	37.508	0.037
1037	7.030	0.000	7.030	244.340	0.000	244.340	36.737	0.036
1038	7.037	0.000	7.037	244.590	0.000	244.590	36.238	0.034
1039	7.044	0.000	7.044	244.835	0.000	244.835	35.699	0.033
1040	7.051	0.000	7.051	245.078	0.000	245.078	35.324	0.031
1041	7.058	0.000	7.058	245.318	0.000	245.318	35.172	0.030
1042	7.065	0.000	7.065	245.556	0.000	245.556	34.756	0.029
1043	7.071	0.000	7.071	245.792	0.000	245.792	34.413	0.028
1044	7.078	0.000	7.078	246.024	0.000	246.024	34.104	0.027
1045	7.085	0.000	7.085	246.255	0.000	246.255	33.940	0.022
1046	7.091	0.000	7.091	246.483	0.000	246.483	33.615	0.025
1047	7.098	0.000	7.098	246.703	0.000	246.703	33.328	0.020
1048	7.104	0.000	7.104	246.925	0.000	246.925	32.879	0.023
1049	7.110	0.000	7.110	247.147	0.000	247.147	32.456	0.012
1050	7.117	0.000	7.117	247.365	0.000	247.365	31.919	0.021
1051	7.123	0.000	7.123	247.578	0.000	247.578	31.378	0.020
1052	7.129	0.000	7.129	247.788	0.000	247.788	30.949	0.019
1053	7.135	0.000	7.135	247.993	0.000	247.993	30.423	0.010
1054	7.141	0.000	7.141	248.195	0.000	248.195	30.122	0.018
1055	7.146	0.000	7.146	248.394	0.000	248.394	29.830	0.017
1056	7.152	0.000	7.152	248.591	0.000	248.591	29.673	0.009
1057	7.158	0.000	7.158	248.788	0.000	248.788	29.269	0.013
1058	7.163	0.000	7.163	248.981	0.000	248.981	28.827	0.015
1059	7.169	0.000	7.169	249.170	0.000	249.170	28.622	0.015
1060	7.174	0.000	7.174	249.352	0.000	249.352	28.289	0.014
1061	7.179	0.000	7.179	249.537	0.000	249.537	28.069	0.014
1062	7.184	0.000	7.184	249.717	0.000	249.717	27.760	0.009
1063	7.190	0.000	7.190	249.898	0.000	249.898	28.468	0.013
1064	7.195	0.000	7.195	250.082	0.000	250.082	29.941	0.013
1065	7.200	0.000	7.200	250.277	0.000	250.277	27.648	0.012
1066	7.206	0.000	7.206	250.456	0.000	250.456	24.607	0.010
1067	7.210	0.000	7.210	250.613	0.000	250.613	22.998	0.010
1068	7.214	0.000	7.214	250.761	0.000	250.761	21.726	0.008
1069	7.218	0.000	7.218	250.901	0.000	250.901	19.682	0.008
1070	7.222	0.000	7.222	251.021	0.000	251.021	19.491	0.008
1071	7.225	0.000	7.225	251.143	0.000	251.143	21.406	0.006
1072	7.229	0.000	7.229	251.281	0.000	251.281	22.972	0.009
1073	7.234	0.000	7.234	251.429	0.000	251.429	21.523	0.006
1074	7.237	0.000	7.237	251.564	0.000	251.564	20.854	0.008
1075	7.241	0.000	7.241	251.699	0.000	251.699	20.534	0.005
1076	7.245	0.000	7.245	251.827	0.000	251.827	20.462	0.005
1077	7.249	0.000	7.249	251.958	0.000	251.958	20.282	0.007
1078	7.253	0.000	7.253	252.087	0.000	252.087	19.813	0.007
1079	7.256	0.000	7.256	252.212	0.000	252.212	19.074	0.007
1080	7.260	0.000	7.260	252.333	0.000	252.333	18.182	0.006
1081	7.263	0.000	7.263	252.446	0.000	252.446	17.466	0.005
1082	7.266	0.000	7.266	252.553	0.000	252.553	17.172	0.005
1083	7.269	0.000	7.269	252.660	0.000	252.660	17.013	0.006
1084	7.272	0.000	7.272	252.767	0.000	252.767	16.694	0.006
1085	7.275	0.000	7.275	252.869	0.000	252.869	16.210	0.003
1086	7.278	0.000	7.278	252.971	0.000	252.971	15.892	0.004
1087	7.281	0.000	7.281	253.064	0.000	253.064	15.360	0.005
1088	7.283	0.000	7.283	253.156	0.000	253.156	14.871	0.005
1089	7.286	0.000	7.286	253.249	0.000	253.249	14.636	0.005
1090	7.289	0.000	7.289	253.340	0.000	253.340	14.357	0.004
1091	7.291	0.000	7.291	253.425	0.000	253.425	14.022	0.004
1092	7.294	0.000	7.294	253.513	0.000	253.513	13.626	0.003
1093	7.296	0.000	7.296	253.597	0.000	253.597	13.117	0.003
1094	7.298	0.000	7.298	253.669	0.000	253.669	12.612	0.003
1095	7.300	0.000	7.300	253.741	0.000	253.741	12.212	0.004
1096	7.302	0.000	7.302	253.809	0.000	253.809	12.091	0.004
1097	7.304	0.000	7.304	253.874	0.000	253.874	11.853	0.003
1098	7.306	0.000	7.306	253.947	0.000	253.947	11.422	0.003
1099	7.308	0.000	7.308	254.008	0.000	254.008	11.148	0.003
