Wavelength (nm) 	 Efficiency Div Wav 1 (%) 	 Efficiency Div Wav 2 (%) 	 Efficiency Div Wav total (%) 	 Jsc Div Wav 1 (A m^-2) 	 Jsc Div Wav 2 (A m^-2) 	 Jsc Div Wav total (A m^-2) 	 EQE Curve 1 (%) 	 EQE Curve 2 (%) 	Jsc 1 correction factor: 0.12747424180101746	Jsc 2 correction factor: 0.12112841760658835
400	0.000	7.235	7.235	0.000	236.729	236.729	14.124	10.421
401	0.001	7.234	7.235	0.048	236.695	236.743	15.055	11.198
402	0.003	7.233	7.235	0.103	236.656	236.759	15.145	11.252
403	0.005	7.231	7.236	0.161	236.616	236.777	14.847	11.118
404	0.006	7.230	7.236	0.215	236.577	236.793	14.425	10.934
405	0.008	7.229	7.237	0.269	236.538	236.807	14.494	11.031
406	0.009	7.228	7.237	0.323	236.500	236.822	14.630	11.121
407	0.011	7.227	7.237	0.375	236.462	236.837	15.044	11.520
408	0.012	7.225	7.238	0.428	236.423	236.852	15.178	11.689
409	0.014	7.224	7.238	0.484	236.382	236.867	15.343	11.936
410	0.016	7.223	7.238	0.546	236.337	236.883	15.515	11.984
411	0.017	7.222	7.239	0.599	236.299	236.898	15.474	12.091
412	0.019	7.220	7.239	0.659	236.255	236.914	15.576	12.294
413	0.021	7.219	7.240	0.723	236.206	236.929	15.643	12.286
414	0.023	7.217	7.240	0.784	236.160	236.944	15.736	12.373
415	0.024	7.216	7.240	0.845	236.114	236.960	15.553	12.543
416	0.026	7.214	7.241	0.909	236.066	236.975	15.812	12.745
417	0.028	7.213	7.241	0.975	236.015	236.990	16.477	13.098
418	0.030	7.211	7.241	1.043	235.964	237.007	16.057	12.912
419	0.032	7.210	7.242	1.106	235.916	237.022	16.111	13.023
420	0.034	7.208	7.242	1.173	235.865	237.038	15.788	12.797
421	0.035	7.207	7.242	1.233	235.819	237.052	15.699	12.873
422	0.037	7.205	7.243	1.302	235.766	237.067	15.702	13.136
423	0.039	7.204	7.243	1.369	235.712	237.081	16.068	13.238
424	0.041	7.202	7.243	1.437	235.659	237.096	16.108	13.215
425	0.043	7.200	7.244	1.504	235.607	237.111	15.623	13.106
426	0.045	7.199	7.244	1.572	235.552	237.124	15.672	13.488
427	0.047	7.197	7.244	1.638	235.498	237.136	16.151	13.509
428	0.049	7.195	7.245	1.704	235.445	237.149	16.011	13.529
429	0.051	7.194	7.245	1.771	235.391	237.162	15.799	13.177
430	0.053	7.192	7.245	1.832	235.343	237.175	15.785	13.420
431	0.054	7.191	7.245	1.880	235.303	237.183	16.189	14.214
432	0.055	7.190	7.245	1.926	235.264	237.190	16.301	14.112
433	0.058	7.188	7.246	2.003	235.201	237.204	16.388	14.148
434	0.060	7.186	7.246	2.075	235.142	237.217	15.962	14.036
435	0.062	7.185	7.246	2.140	235.087	237.228	16.546	14.361
436	0.064	7.183	7.246	2.216	235.025	237.241	16.434	14.384
437	0.066	7.181	7.247	2.297	234.958	237.255	16.161	14.156
438	0.068	7.179	7.247	2.379	234.890	237.268	16.410	14.590
439	0.071	7.177	7.247	2.453	234.828	237.281	17.112	14.996
440	0.073	7.175	7.247	2.527	234.766	237.293	17.162	15.210
441	0.075	7.173	7.248	2.612	234.695	237.307	16.983	14.774
442	0.078	7.170	7.248	2.696	234.626	237.322	17.170	15.075
443	0.080	7.168	7.248	2.787	234.551	237.337	17.775	15.671
444	0.083	7.166	7.249	2.882	234.471	237.353	17.663	15.582
445	0.086	7.163	7.249	2.975	234.393	237.368	17.732	15.434
446	0.088	7.161	7.249	3.072	234.313	237.385	18.399	15.747
447	0.091	7.159	7.250	3.163	234.239	237.402	18.322	15.879
448	0.094	7.156	7.250	3.266	234.155	237.420	18.940	16.291
449	0.097	7.153	7.250	3.374	234.066	237.440	18.766	16.568
450	0.100	7.151	7.251	3.481	233.976	237.458	19.271	16.868
451	0.103	7.148	7.251	3.596	233.881	237.477	18.446	16.499
452	0.107	7.145	7.252	3.711	233.784	237.495	18.078	16.358
453	0.110	7.142	7.252	3.818	233.692	237.510	18.444	17.054
454	0.113	7.139	7.252	3.920	233.602	237.522	19.112	17.666
455	0.116	7.136	7.252	4.033	233.503	237.536	20.042	18.334
456	0.119	7.133	7.252	4.152	233.400	237.552	20.301	18.782
457	0.123	7.130	7.253	4.277	233.291	237.568	20.463	18.927
458	0.127	7.126	7.253	4.404	233.179	237.584	20.584	18.843
459	0.130	7.123	7.253	4.529	233.070	237.600	20.445	19.011
460	0.134	7.120	7.253	4.654	232.960	237.614	20.682	19.269
461	0.137	7.116	7.254	4.779	232.850	237.629	21.425	19.750
462	0.141	7.113	7.254	4.914	232.731	237.645	21.399	19.645
463	0.145	7.109	7.254	5.051	232.613	237.663	21.380	19.985
464	0.149	7.105	7.254	5.188	232.490	237.678	21.260	20.150
465	0.153	7.102	7.255	5.321	232.370	237.691	21.364	19.956
466	0.157	7.098	7.255	5.452	232.253	237.705	21.183	20.273
467	0.161	7.094	7.255	5.586	232.130	237.716	21.459	20.655
468	0.164	7.091	7.255	5.716	232.012	237.728	21.711	20.751
469	0.168	7.087	7.255	5.854	231.887	237.741	21.895	21.019
470	0.172	7.083	7.255	5.993	231.760	237.752	22.971	21.719
471	0.176	7.079	7.255	6.134	231.633	237.767	22.531	21.411
472	0.181	7.075	7.256	6.276	231.504	237.780	21.031	20.650
473	0.185	7.071	7.256	6.416	231.373	237.789	22.875	22.252
474	0.189	7.067	7.256	6.561	231.239	237.800	23.900	23.050
475	0.193	7.063	7.256	6.717	231.097	237.814	22.638	22.166
476	0.198	7.058	7.256	6.870	230.956	237.825	22.541	22.259
477	0.202	7.054	7.256	7.016	230.817	237.834	23.739	23.121
478	0.206	7.050	7.256	7.172	230.673	237.845	23.781	22.959
479	0.211	7.045	7.256	7.334	230.526	237.859	23.696	23.152
480	0.216	7.041	7.256	7.492	230.378	237.869	23.180	23.004
481	0.220	7.036	7.256	7.650	230.229	237.879	22.580	22.464
482	0.225	7.032	7.256	7.804	230.083	237.887	23.328	23.210
483	0.229	7.027	7.256	7.965	229.932	237.897	23.931	23.939
484	0.234	7.022	7.256	8.128	229.777	237.905	24.346	23.911
485	0.239	7.018	7.256	8.291	229.624	237.915	24.505	24.354
486	0.243	7.013	7.256	8.455	229.468	237.923	24.638	24.565
487	0.247	7.009	7.256	8.589	229.341	237.930	24.976	25.264
488	0.252	7.004	7.256	8.742	229.194	237.937	26.674	26.276
489	0.257	6.999	7.256	8.921	229.027	237.948	27.885	26.960
490	0.262	6.994	7.256	9.095	228.866	237.961	28.083	27.247
491	0.267	6.989	7.256	9.293	228.683	237.976	28.322	27.751
492	0.273	6.983	7.256	9.484	228.505	237.989	28.380	28.064
493	0.278	6.978	7.256	9.668	228.332	238.000	29.602	28.371
494	0.284	6.972	7.256	9.873	228.144	238.017	29.844	28.488
495	0.290	6.967	7.257	10.076	227.960	238.036	29.850	29.319
496	0.296	6.961	7.257	10.291	227.759	238.050	30.152	29.516
497	0.302	6.955	7.257	10.499	227.566	238.065	28.771	28.621
498	0.308	6.949	7.257	10.701	227.375	238.076	29.297	28.533
499	0.314	6.943	7.257	10.903	227.188	238.091	30.999	30.312
500	0.320	6.937	7.257	11.116	226.991	238.107	32.230	31.042
501	0.326	6.931	7.257	11.338	226.788	238.125	31.734	30.651
502	0.332	6.925	7.257	11.550	226.593	238.143	32.613	31.156
503	0.339	6.919	7.258	11.770	226.394	238.164	33.950	32.698
504	0.345	6.912	7.258	12.008	226.176	238.184	34.705	32.800
505	0.352	6.906	7.258	12.236	225.971	238.207	31.746	30.795
506	0.358	6.900	7.258	12.461	225.764	238.225	33.066	31.733
507	0.366	6.893	7.258	12.705	225.541	238.246	34.531	32.255
508	0.373	6.886	7.259	12.949	225.326	238.274	32.139	30.647
509	0.379	6.880	7.259	13.171	225.124	238.295	30.570	30.423
510	0.385	6.874	7.259	13.392	224.914	238.306	31.070	30.588
511	0.392	6.867	7.259	13.613	224.708	238.321	30.260	29.677
512	0.398	6.861	7.259	13.832	224.503	238.335	32.365	32.281
513	0.405	6.854	7.259	14.072	224.275	238.347	33.566	33.308
514	0.412	6.847	7.259	14.308	224.054	238.361	32.551	32.592
515	0.418	6.841	7.259	14.531	223.840	238.371	34.451	34.579
516	0.425	6.834	7.259	14.776	223.608	238.383	34.793	35.125
517	0.432	6.826	7.259	15.024	223.369	238.393	35.271	35.226
518	0.438	6.820	7.259	15.231	223.173	238.404	38.280	37.230
519	0.446	6.813	7.259	15.487	222.936	238.422	36.939	36.216
520	0.452	6.806	7.259	15.728	222.712	238.439	37.002	36.776
521	0.460	6.799	7.259	15.990	222.463	238.454	37.522	36.838
522	0.468	6.791	7.259	16.262	222.210	238.472	37.553	35.909
523	0.476	6.783	7.259	16.540	221.957	238.497	38.657	37.676
524	0.484	6.776	7.259	16.810	221.706	238.516	38.141	37.659
525	0.492	6.767	7.259	17.098	221.436	238.534	36.664	36.756
526	0.500	6.759	7.259	17.373	221.174	238.548	37.880	38.079
527	0.508	6.751	7.259	17.650	220.910	238.560	39.017	38.884
528	0.515	6.744	7.259	17.900	220.674	238.574	40.270	39.712
529	0.523	6.736	7.259	18.194	220.398	238.592	39.745	39.380
530	0.532	6.727	7.259	18.499	220.111	238.610	40.614	39.702
531	0.541	6.718	7.259	18.800	219.831	238.631	40.737	39.486
532	0.550	6.709	7.259	19.117	219.538	238.655	40.866	39.997
533	0.559	6.700	7.259	19.432	219.245	238.677	41.535	40.401
534	0.567	6.692	7.260	19.719	218.980	238.699	41.383	40.644
535	0.576	6.684	7.260	20.026	218.694	238.720	42.371	41.847
536	0.585	6.674	7.260	20.345	218.395	238.739	41.122	40.862
537	0.595	6.665	7.260	20.669	218.088	238.757	42.528	41.868
538	0.604	6.656	7.260	20.978	217.799	238.777	44.236	43.223
539	0.613	6.647	7.260	21.319	217.482	238.801	45.109	43.281
540	0.623	6.637	7.260	21.659	217.172	238.831	45.826	43.895
541	0.633	6.628	7.261	21.992	216.870	238.861	47.303	44.748
542	0.642	6.619	7.261	22.323	216.572	238.895	50.286	45.846
543	0.653	6.609	7.262	22.707	216.238	238.945	49.921	47.120
544	0.664	6.598	7.262	23.083	215.901	238.984	49.630	47.268
545	0.675	6.587	7.263	23.472	215.549	239.021	47.868	46.087
546	0.686	6.577	7.263	23.839	215.212	239.051	48.078	46.843
547	0.696	6.567	7.263	24.204	214.876	239.079	49.392	46.944
548	0.707	6.556	7.264	24.583	214.532	239.115	50.047	47.520
549	0.718	6.546	7.264	24.958	214.194	239.152	51.606	48.774
550	0.730	6.535	7.265	25.360	213.833	239.193	52.627	49.198
551	0.741	6.524	7.265	25.764	213.473	239.237	53.051	50.096
552	0.753	6.513	7.266	26.173	213.106	239.279	52.534	50.089
553	0.765	6.501	7.266	26.587	212.731	239.318	53.692	51.195
554	0.777	6.490	7.267	26.999	212.357	239.357	51.448	49.637
555	0.788	6.479	7.267	27.403	211.987	239.390	51.588	49.533
556	0.800	6.467	7.267	27.812	211.614	239.426	51.555	49.416
557	0.812	6.456	7.268	28.216	211.246	239.462	52.281	49.701
558	0.823	6.445	7.268	28.614	210.886	239.500	54.591	51.483
559	0.835	6.433	7.269	29.040	210.504	239.544	54.313	51.627
560	0.847	6.422	7.269	29.443	210.141	239.584	55.581	52.230
561	0.859	6.411	7.270	29.862	209.767	239.629	56.515	52.569
562	0.872	6.398	7.271	30.315	209.366	239.680	54.117	51.352
563	0.884	6.387	7.271	30.728	208.994	239.721	54.065	51.817
564	0.896	6.375	7.272	31.156	208.604	239.760	56.744	53.472
565	0.909	6.363	7.272	31.600	208.206	239.806	57.624	53.330
566	0.922	6.351	7.273	32.055	207.807	239.861	61.723	56.298
567	0.935	6.339	7.274	32.515	207.408	239.923	62.429	56.777
568	0.950	6.325	7.275	33.013	206.977	239.990	60.585	56.837
569	0.964	6.312	7.276	33.494	206.548	240.042	60.450	55.911
570	0.977	6.300	7.277	33.960	206.138	240.098	59.436	54.858
571	0.990	6.288	7.278	34.421	205.734	240.155	61.335	56.318
572	1.004	6.275	7.279	34.882	205.332	240.214	61.261	56.193
573	1.018	6.262	7.280	35.368	204.908	240.276	63.776	57.835
574	1.032	6.249	7.281	35.879	204.468	240.347	66.602	60.139
575	1.047	6.235	7.282	36.409	204.013	240.422	64.475	59.116
576	1.062	6.222	7.283	36.913	203.574	240.487	63.252	58.623
577	1.076	6.208	7.284	37.403	203.142	240.546	62.288	57.829
578	1.090	6.195	7.285	37.902	202.702	240.604	59.587	54.964
579	1.104	6.183	7.286	38.362	202.299	240.661	60.601	56.047
580	1.117	6.170	7.287	38.839	201.881	240.720	61.627	56.497
581	1.132	6.157	7.288	39.335	201.449	240.783	63.861	58.229
582	1.146	6.143	7.289	39.850	201.003	240.853	66.548	60.082
583	1.162	6.129	7.291	40.395	200.535	240.931	64.873	59.353
584	1.178	6.114	7.292	40.936	200.065	241.001	64.427	59.545
585	1.193	6.100	7.293	41.470	199.597	241.067	62.498	58.413
586	1.208	6.086	7.294	41.985	199.139	241.124	62.398	57.892
587	1.222	6.072	7.295	42.488	198.694	241.183	63.442	58.390
588	1.237	6.058	7.296	43.012	198.235	241.247	64.707	59.548
589	1.253	6.044	7.297	43.536	197.777	241.314	65.738	60.426
590	1.266	6.032	7.298	43.998	197.374	241.372	67.348	61.886
591	1.280	6.019	7.299	44.500	196.935	241.435	62.479	57.580
592	1.295	6.005	7.300	45.001	196.497	241.498	63.422	58.002
593	1.309	5.992	7.301	45.499	196.065	241.564	64.304	59.017
594	1.324	5.978	7.302	46.013	195.616	241.629	63.674	58.268
595	1.338	5.965	7.303	46.519	195.177	241.696	63.243	57.839
596	1.353	5.952	7.304	47.018	194.743	241.761	62.510	57.025
597	1.367	5.938	7.305	47.527	194.301	241.828	62.285	56.865
598	1.382	5.925	7.307	48.036	193.860	241.896	63.028	57.668
599	1.397	5.911	7.308	48.543	193.419	241.963	63.920	58.581
600	1.411	5.897	7.309	49.058	192.970	242.028	64.854	59.160
601	1.427	5.883	7.310	49.590	192.508	242.098	65.314	59.748
602	1.442	5.869	7.311	50.119	192.049	242.168	65.014	59.256
603	1.457	5.856	7.312	50.638	191.600	242.238	64.343	58.655
604	1.472	5.842	7.314	51.164	191.143	242.307	65.011	59.322
605	1.488	5.827	7.315	51.705	190.674	242.379	64.845	59.501
606	1.503	5.813	7.316	52.245	190.203	242.448	65.306	59.692
607	1.519	5.798	7.317	52.791	189.729	242.520	63.625	58.280
608	1.534	5.784	7.318	53.322	189.267	242.589	62.547	57.002
609	1.549	5.770	7.320	53.846	188.813	242.659	61.387	55.897
610	1.564	5.757	7.321	54.358	188.370	242.728	60.128	54.792
611	1.578	5.744	7.322	54.855	187.939	242.794	61.151	55.726
612	1.593	5.730	7.323	55.362	187.501	242.863	63.724	58.053
613	1.608	5.716	7.324	55.899	187.036	242.934	66.427	60.672
614	1.624	5.701	7.325	56.451	186.556	243.007	68.504	62.377
615	1.640	5.687	7.327	57.004	186.077	243.081	67.723	61.311
616	1.656	5.672	7.328	57.574	185.588	243.162	65.781	59.381
617	1.672	5.658	7.330	58.112	185.127	243.238	62.908	57.209
618	1.686	5.644	7.331	58.619	184.688	243.307	60.572	55.005
619	1.701	5.631	7.332	59.126	184.250	243.376	59.152	53.735
620	1.715	5.618	7.333	59.627	183.817	243.445	58.539	53.354
621	1.730	5.605	7.334	60.123	183.387	243.510	60.873	55.503
622	1.745	5.591	7.336	60.645	182.937	243.581	65.201	59.364
623	1.760	5.577	7.337	61.183	182.471	243.654	68.041	61.908
624	1.776	5.562	7.338	61.741	181.989	243.730	68.770	62.221
625	1.793	5.547	7.340	62.306	181.504	243.809	67.135	60.956
626	1.808	5.533	7.341	62.854	181.031	243.885	64.616	58.598
627	1.823	5.519	7.342	63.381	180.576	243.957	63.501	57.640
628	1.839	5.505	7.343	63.913	180.117	244.030	62.593	57.064
629	1.853	5.491	7.345	64.410	179.687	244.097	63.255	57.393
630	1.868	5.478	7.346	64.934	179.235	244.169	63.758	57.925
631	1.883	5.464	7.347	65.454	178.786	244.240	63.798	58.261
632	1.898	5.450	7.348	65.984	178.326	244.311	64.931	59.062
633	1.913	5.436	7.349	66.503	177.878	244.382	65.126	59.361
634	1.929	5.421	7.351	67.059	177.397	244.457	65.362	59.788
635	1.945	5.407	7.352	67.609	176.920	244.529	65.875	60.186
636	1.961	5.392	7.353	68.172	176.431	244.603	65.940	60.070
637	1.977	5.377	7.355	68.724	175.954	244.677	65.636	60.177
638	1.994	5.362	7.356	69.291	175.459	244.751	65.367	59.884
639	2.010	5.347	7.357	69.861	174.963	244.824	64.610	59.295
640	2.026	5.332	7.358	70.421	174.475	244.895	64.344	58.986
641	2.042	5.318	7.359	70.971	173.995	244.966	64.093	58.956
642	2.058	5.303	7.360	71.521	173.515	245.036	65.224	59.819
643	2.074	5.288	7.362	72.080	173.027	245.107	65.584	60.222
644	2.090	5.273	7.363	72.649	172.532	245.181	66.072	60.791
645	2.107	5.257	7.364	73.222	172.030	245.253	65.770	60.659
646	2.123	5.242	7.365	73.799	171.526	245.325	64.369	59.413
647	2.139	5.227	7.366	74.346	171.047	245.392	63.857	59.040
648	2.154	5.213	7.367	74.885	170.573	245.458	63.085	58.330
649	2.170	5.199	7.368	75.414	170.108	245.522	63.289	58.834
650	2.184	5.185	7.369	75.929	169.652	245.581	64.694	59.666
651	2.200	5.171	7.370	76.460	169.186	245.646	66.066	60.976
652	2.216	5.155	7.371	77.039	168.679	245.718	66.565	61.626
653	2.233	5.140	7.373	77.601	168.184	245.786	65.680	60.881
654	2.249	5.124	7.374	78.175	167.679	245.854	64.915	60.439
655	2.265	5.109	7.375	78.733	167.185	245.918	63.619	59.754
656	2.280	5.095	7.375	79.256	166.719	245.975	62.704	58.819
657	2.293	5.083	7.376	79.708	166.315	246.024	63.896	59.675
658	2.307	5.070	7.377	80.191	165.887	246.078	64.578	60.214
659	2.323	5.055	7.378	80.737	165.403	246.140	65.165	60.644
660	2.339	5.040	7.379	81.293	164.911	246.204	66.348	61.719
661	2.355	5.024	7.380	81.864	164.406	246.270	65.069	60.910
662	2.371	5.009	7.381	82.421	163.911	246.332	64.067	60.088
663	2.387	4.994	7.381	82.967	163.425	246.392	63.474	59.714
664	2.402	4.980	7.382	83.507	162.942	246.449	62.490	59.039
665	2.418	4.965	7.383	84.045	162.460	246.505	62.594	59.054
666	2.434	4.950	7.384	84.597	161.964	246.561	63.947	60.038
667	2.450	4.934	7.385	85.162	161.461	246.622	65.210	61.006
668	2.467	4.919	7.385	85.734	160.952	246.686	65.594	61.450
669	2.483	4.903	7.386	86.310	160.438	246.748	65.690	61.582
670	2.500	4.887	7.387	86.898	159.915	246.813	65.448	61.247
671	2.517	4.871	7.388	87.479	159.398	246.877	63.313	59.610
672	2.533	4.856	7.389	88.039	158.897	246.936	63.018	59.157
673	2.549	4.841	7.390	88.592	158.404	246.997	63.581	59.666
674	2.565	4.826	7.391	89.155	157.902	247.057	63.084	59.238
675	2.581	4.811	7.391	89.710	157.406	247.116	64.440	60.461
676	2.597	4.795	7.392	90.273	156.904	247.177	64.899	61.137
677	2.614	4.779	7.393	90.851	156.386	247.237	63.888	60.327
678	2.630	4.764	7.394	91.416	155.880	247.296	63.616	60.093
679	2.646	4.748	7.395	91.979	155.375	247.354	62.928	59.288
680	2.662	4.733	7.395	92.532	154.880	247.412	62.207	58.695
681	2.678	4.718	7.396	93.084	154.384	247.468	63.301	59.409
682	2.694	4.703	7.397	93.643	153.886	247.529	63.885	59.961
683	2.710	4.687	7.398	94.211	153.379	247.590	63.763	60.052
684	2.727	4.672	7.399	94.771	152.879	247.649	63.738	60.070
685	2.743	4.657	7.399	95.327	152.381	247.707	63.474	59.942
686	2.759	4.642	7.400	95.885	151.879	247.764	62.022	58.592
687	2.774	4.627	7.401	96.419	151.401	247.820	61.020	57.742
688	2.785	4.617	7.402	96.800	151.059	247.859	62.643	58.929
689	2.798	4.604	7.402	97.253	150.656	247.909	61.865	58.590
690	2.811	4.592	7.403	97.704	150.250	247.954	62.630	58.786
691	2.825	4.579	7.403	98.179	149.826	248.006	63.960	60.190
692	2.839	4.565	7.404	98.688	149.371	248.059	63.933	59.930
693	2.854	4.551	7.405	99.211	148.904	248.115	63.420	59.694
694	2.869	4.537	7.406	99.726	148.444	248.170	63.375	59.370
695	2.884	4.523	7.407	100.237	147.990	248.227	63.345	59.808
696	2.899	4.509	7.407	100.757	147.524	248.280	63.742	60.255
697	2.914	4.494	7.408	101.281	147.052	248.333	64.378	60.849
698	2.930	4.479	7.409	101.843	146.547	248.390	64.904	61.380
699	2.946	4.463	7.409	102.401	146.045	248.446	64.160	60.821
700	2.962	4.448	7.410	102.941	145.559	248.499	63.574	60.395
701	2.977	4.434	7.411	103.471	145.080	248.551	63.858	60.458
702	2.992	4.419	7.411	104.000	144.604	248.604	63.619	60.278
703	3.007	4.405	7.412	104.528	144.129	248.657	64.363	60.892
704	3.023	4.390	7.413	105.067	143.645	248.712	65.654	62.144
705	3.039	4.374	7.413	105.633	143.136	248.769	65.156	61.851
706	3.055	4.359	7.414	106.200	142.625	248.825	63.778	60.687
707	3.071	4.344	7.415	106.751	142.127	248.878	63.837	60.670
708	3.087	4.328	7.415	107.303	141.628	248.931	63.913	60.609
709	3.103	4.313	7.416	107.852	141.134	248.986	62.753	59.943
710	3.119	4.298	7.417	108.396	140.640	249.036	62.632	59.751
711	3.134	4.283	7.417	108.945	140.142	249.087	65.658	62.706
712	3.151	4.267	7.418	109.516	139.624	249.139	66.212	62.764
713	3.167	4.251	7.419	110.092	139.104	249.196	65.012	61.894
714	3.183	4.236	7.419	110.649	138.600	249.249	64.278	61.130
715	3.199	4.220	7.420	111.206	138.097	249.303	63.969	60.758
716	3.215	4.206	7.420	111.741	137.614	249.355	65.364	62.115
717	3.231	4.190	7.421	112.295	137.115	249.410	66.235	63.319
718	3.245	4.177	7.422	112.788	136.667	249.455	67.173	63.965
719	3.258	4.164	7.422	113.253	136.245	249.498	67.531	64.469
720	3.270	4.152	7.423	113.674	135.864	249.538	66.496	63.744
721	3.283	4.140	7.423	114.116	135.460	249.577	66.065	63.459
722	3.297	4.126	7.423	114.601	135.018	249.619	65.738	62.843
723	3.313	4.111	7.424	115.153	134.518	249.671	65.187	63.009
724	3.327	4.097	7.424	115.656	134.055	249.711	67.052	64.331
725	3.341	4.084	7.425	116.137	133.617	249.753	68.282	65.751
726	3.355	4.070	7.425	116.619	133.176	249.794	68.426	66.219
727	3.370	4.056	7.425	117.122	132.713	249.835	68.361	66.104
728	3.384	4.042	7.426	117.628	132.248	249.876	67.030	65.227
729	3.398	4.028	7.426	118.105	131.807	249.912	66.294	64.770
730	3.412	4.015	7.426	118.579	131.366	249.945	66.256	64.744
731	3.426	4.000	7.426	119.092	130.890	249.982	67.089	65.542
732	3.440	3.986	7.427	119.584	130.434	250.017	68.598	66.789
733	3.456	3.971	7.427	120.125	129.932	250.057	69.007	67.071
734	3.472	3.955	7.427	120.693	129.409	250.101	69.111	67.194
735	3.489	3.938	7.428	121.282	128.865	250.146	67.846	66.060
736	3.506	3.922	7.428	121.850	128.338	250.188	67.050	65.528
737	3.522	3.906	7.428	122.408	127.820	250.228	67.362	65.601
738	3.538	3.890	7.428	122.969	127.300	250.269	67.086	65.773
739	3.554	3.874	7.428	123.539	126.769	250.308	68.504	67.316
740	3.571	3.858	7.429	124.106	126.240	250.346	69.230	67.864
741	3.587	3.841	7.429	124.691	125.695	250.386	68.436	67.293
742	3.604	3.825	7.429	125.270	125.155	250.425	68.075	67.213
743	3.621	3.808	7.429	125.846	124.614	250.461	67.422	66.174
744	3.637	3.792	7.429	126.429	124.072	250.501	66.918	65.674
745	3.654	3.775	7.429	127.013	123.528	250.541	67.866	66.721
746	3.671	3.758	7.429	127.606	122.974	250.580	68.152	66.988
747	3.688	3.741	7.430	128.201	122.418	250.619	68.865	67.401
748	3.706	3.724	7.430	128.804	121.858	250.661	69.299	67.827
749	3.723	3.707	7.430	129.405	121.298	250.703	68.646	67.510
750	3.740	3.690	7.430	130.003	120.740	250.743	67.837	66.999
751	3.757	3.673	7.430	130.595	120.185	250.780	67.580	66.520
752	3.774	3.656	7.430	131.179	119.639	250.817	67.528	66.637
753	3.791	3.639	7.430	131.769	119.085	250.854	68.212	67.243
754	3.808	3.622	7.430	132.360	118.531	250.892	68.487	67.541
755	3.825	3.605	7.431	132.966	117.965	250.930	68.629	67.430
756	3.843	3.588	7.431	133.568	117.403	250.970	68.705	67.431
757	3.860	3.571	7.431	134.165	116.845	251.011	67.427	66.188
758	3.877	3.554	7.431	134.753	116.297	251.050	66.815	65.491
759	3.894	3.538	7.431	135.336	115.754	251.090	66.794	65.716
760	3.910	3.521	7.431	135.904	115.223	251.128	66.878	65.545
761	3.914	3.518	7.431	136.033	115.103	251.136	67.154	65.562
762	3.916	3.516	7.431	136.108	115.033	251.141	67.884	66.096
763	3.926	3.506	7.432	136.446	114.721	251.167	67.798	65.926
764	3.931	3.501	7.432	136.633	114.548	251.181	67.222	65.571
765	3.939	3.493	7.432	136.897	114.303	251.200	66.786	65.128
766	3.948	3.484	7.432	137.230	113.994	251.224	66.180	64.724
767	3.959	3.473	7.432	137.621	113.631	251.252	66.476	64.669
768	3.973	3.459	7.432	138.090	113.197	251.287	66.719	64.741
769	3.988	3.444	7.433	138.627	112.702	251.328	66.727	64.742
770	4.004	3.429	7.433	139.170	112.200	251.370	66.818	64.882
771	4.020	3.413	7.433	139.731	111.683	251.414	66.755	64.524
772	4.036	3.397	7.434	140.297	111.163	251.460	66.150	64.446
773	4.053	3.381	7.434	140.864	110.639	251.503	65.948	63.996
774	4.069	3.365	7.434	141.430	110.117	251.547	65.655	63.459
775	4.085	3.349	7.435	141.995	109.598	251.593	65.472	63.388
776	4.101	3.334	7.435	142.558	109.080	251.638	65.832	63.359
777	4.118	3.318	7.435	143.126	108.561	251.687	65.836	63.376
778	4.134	3.302	7.436	143.694	108.042	251.736	65.550	63.006
779	4.150	3.286	7.436	144.260	107.524	251.785	65.087	62.519
780	4.167	3.270	7.437	144.823	107.011	251.834	64.251	61.780
781	4.182	3.255	7.437	145.374	106.507	251.881	64.040	61.390
782	4.198	3.240	7.438	145.925	106.006	251.930	63.985	61.413
783	4.214	3.224	7.438	146.476	105.504	251.980	64.432	61.691
784	4.230	3.209	7.439	147.030	104.999	252.029	64.586	61.968
785	4.246	3.194	7.439	147.582	104.496	252.078	64.836	62.053
786	4.262	3.178	7.440	148.137	103.992	252.129	64.476	61.592
787	4.278	3.163	7.441	148.694	103.486	252.180	63.776	61.180
788	4.293	3.148	7.441	149.235	102.992	252.227	63.194	60.540
789	4.309	3.133	7.442	149.768	102.507	252.276	62.864	60.202
790	4.324	3.118	7.442	150.299	102.025	252.324	63.154	60.270
791	4.339	3.104	7.443	150.811	101.560	252.371	63.311	60.360
792	4.354	3.089	7.443	151.336	101.084	252.420	63.360	60.454
793	4.369	3.075	7.444	151.858	100.612	252.469	62.968	60.202
794	4.384	3.061	7.444	152.371	100.145	252.517	62.124	59.522
795	4.398	3.046	7.445	152.884	99.679	252.563	61.763	59.135
796	4.413	3.032	7.445	153.394	99.215	252.609	61.220	58.761
797	4.427	3.018	7.446	153.889	98.763	252.653	61.146	58.606
798	4.442	3.004	7.446	154.396	98.303	252.699	61.446	58.845
799	4.457	2.990	7.447	154.909	97.835	252.745	61.887	59.255
800	4.471	2.976	7.447	155.418	97.373	252.791	61.904	59.255
801	4.486	2.962	7.448	155.921	96.915	252.836	61.399	58.961
802	4.500	2.948	7.448	156.427	96.453	252.881	60.886	58.505
803	4.515	2.934	7.449	156.930	95.995	252.925	60.497	58.162
804	4.529	2.920	7.449	157.420	95.547	252.968	60.450	58.078
805	4.543	2.906	7.449	157.918	95.093	253.011	60.956	58.558
806	4.557	2.892	7.450	158.408	94.645	253.053	61.330	58.954
807	4.572	2.878	7.450	158.922	94.176	253.098	61.143	58.761
808	4.587	2.864	7.451	159.429	93.713	253.143	61.010	58.669
809	4.601	2.850	7.451	159.936	93.251	253.186	60.543	58.326
810	4.615	2.836	7.452	160.426	92.801	253.228	60.056	57.864
811	4.629	2.822	7.452	160.913	92.354	253.268	60.036	57.935
812	4.643	2.809	7.452	161.400	91.907	253.308	60.250	58.182
813	4.657	2.795	7.453	161.877	91.469	253.346	60.745	58.651
814	4.671	2.782	7.453	162.350	91.035	253.385	61.110	59.041
815	4.683	2.770	7.453	162.778	90.643	253.421	60.887	58.850
816	4.695	2.758	7.454	163.201	90.254	253.455	60.738	58.769
817	4.707	2.747	7.454	163.595	89.892	253.487	59.884	57.989
818	4.718	2.736	7.454	163.993	89.526	253.519	59.571	57.732
819	4.729	2.725	7.454	164.375	89.174	253.549	60.070	58.176
820	4.741	2.713	7.455	164.799	88.783	253.582	60.276	58.274
821	4.753	2.702	7.455	165.204	88.410	253.614	60.169	58.271
822	4.766	2.689	7.455	165.673	87.979	253.652	60.041	58.299
823	4.779	2.676	7.455	166.121	87.567	253.688	59.670	58.033
824	4.788	2.667	7.456	166.437	87.275	253.712	59.536	57.862
825	4.801	2.655	7.456	166.874	86.872	253.746	59.754	58.201
826	4.814	2.642	7.456	167.329	86.451	253.780	59.606	58.147
827	4.827	2.630	7.456	167.766	86.045	253.811	59.767	58.351
828	4.840	2.617	7.456	168.230	85.615	253.845	60.703	59.117
829	4.852	2.605	7.457	168.638	85.238	253.876	61.101	59.468
830	4.865	2.592	7.457	169.087	84.824	253.911	60.784	59.328
831	4.877	2.580	7.457	169.527	84.416	253.942	60.495	59.255
832	4.890	2.567	7.457	169.969	84.004	253.973	59.909	58.519
833	4.902	2.555	7.457	170.395	83.609	254.004	59.889	58.566
834	4.915	2.542	7.458	170.849	83.186	254.035	60.305	59.032
835	4.928	2.530	7.458	171.296	82.769	254.066	60.499	59.118
836	4.942	2.516	7.458	171.778	82.321	254.099	60.568	59.463
837	4.956	2.502	7.458	172.247	81.884	254.131	60.302	59.211
838	4.970	2.489	7.458	172.733	81.431	254.164	59.764	58.985
839	4.983	2.475	7.458	173.209	80.984	254.193	59.916	59.111
840	4.997	2.461	7.458	173.689	80.535	254.223	59.768	59.017
841	5.011	2.447	7.458	174.174	80.079	254.254	59.943	59.161
842	5.025	2.433	7.458	174.660	79.624	254.284	60.421	59.590
843	5.039	2.420	7.458	175.143	79.171	254.314	60.798	59.919
844	5.053	2.405	7.458	175.634	78.710	254.344	61.216	60.379
845	5.067	2.392	7.459	176.120	78.255	254.375	61.205	60.247
846	5.081	2.377	7.459	176.621	77.786	254.407	61.036	60.168
847	5.096	2.363	7.459	177.122	77.316	254.438	60.939	59.972
848	5.110	2.349	7.459	177.610	76.861	254.471	60.788	59.972
849	5.124	2.335	7.459	178.097	76.404	254.501	60.988	60.074
850	5.138	2.321	7.459	178.584	75.949	254.532	61.353	60.481
851	5.151	2.308	7.459	179.029	75.532	254.561	61.782	60.873
852	5.165	2.294	7.459	179.518	75.074	254.592	61.626	60.754
853	5.179	2.280	7.459	180.004	74.620	254.624	61.438	60.360
854	5.193	2.267	7.459	180.486	74.169	254.655	61.232	60.382
855	5.205	2.255	7.459	180.910	73.771	254.681	61.311	60.414
856	5.218	2.241	7.459	181.367	73.343	254.710	61.772	60.969
857	5.232	2.227	7.459	181.857	72.883	254.740	62.118	61.242
858	5.247	2.213	7.459	182.361	72.411	254.771	62.397	61.645
859	5.261	2.198	7.460	182.868	71.935	254.803	62.288	61.469
860	5.276	2.184	7.460	183.374	71.460	254.834	61.988	61.245
861	5.290	2.169	7.460	183.878	70.987	254.865	62.100	61.480
862	5.305	2.155	7.460	184.381	70.514	254.895	61.988	61.513
863	5.319	2.140	7.460	184.889	70.035	254.924	62.226	61.458
864	5.334	2.126	7.460	185.401	69.554	254.955	62.507	61.724
865	5.348	2.111	7.460	185.906	69.081	254.987	62.233	61.483
866	5.363	2.097	7.460	186.402	68.616	255.017	61.855	61.289
867	5.375	2.084	7.460	186.836	68.206	255.043	62.082	61.699
868	5.389	2.071	7.460	187.307	67.762	255.068	62.118	61.652
869	5.403	2.057	7.460	187.800	67.295	255.095	61.982	61.526
870	5.417	2.043	7.460	188.290	66.834	255.123	62.552	62.187
871	5.432	2.028	7.460	188.793	66.359	255.152	62.534	62.126
872	5.446	2.014	7.460	189.290	65.890	255.181	62.375	61.875
873	5.460	1.999	7.460	189.793	65.417	255.209	62.705	62.280
874	5.475	1.985	7.460	190.294	64.944	255.238	62.737	62.252
875	5.489	1.971	7.459	190.787	64.479	255.266	62.762	62.140
876	5.503	1.957	7.460	191.274	64.021	255.295	62.542	62.080
877	5.517	1.942	7.459	191.772	63.550	255.322	62.508	61.958
878	5.532	1.928	7.459	192.273	63.078	255.351	62.494	62.108
879	5.546	1.913	7.459	192.773	62.605	255.378	62.292	62.064
880	5.560	1.899	7.459	193.264	62.141	255.405	62.272	61.944
881	5.574	1.885	7.459	193.756	61.676	255.432	62.532	62.106
882	5.588	1.871	7.459	194.235	61.224	255.459	62.274	62.071
883	5.602	1.857	7.459	194.725	60.760	255.485	62.350	62.069
884	5.616	1.843	7.459	195.214	60.298	255.512	62.513	62.156
885	5.630	1.829	7.459	195.707	59.831	255.539	62.506	61.994
886	5.645	1.814	7.459	196.207	59.360	255.567	62.535	62.145
887	5.659	1.800	7.459	196.689	58.906	255.595	62.304	62.224
888	5.673	1.786	7.459	197.171	58.449	255.620	62.405	62.305
889	5.687	1.772	7.459	197.660	57.985	255.646	62.647	62.397
890	5.701	1.758	7.459	198.159	57.514	255.673	62.600	62.512
891	5.715	1.743	7.459	198.652	57.047	255.699	62.389	62.301
892	5.729	1.729	7.459	199.145	56.579	255.724	62.761	62.527
893	5.743	1.715	7.458	199.632	56.118	255.750	62.904	62.963
894	5.757	1.701	7.458	200.103	55.671	255.773	63.451	63.393
895	5.770	1.688	7.458	200.565	55.231	255.796	63.461	63.518
896	5.783	1.675	7.458	201.009	54.809	255.818	63.504	63.656
897	5.795	1.663	7.458	201.426	54.412	255.838	63.628	63.807
898	5.806	1.652	7.458	201.792	54.063	255.855	63.786	63.729
899	5.817	1.641	7.458	202.187	53.688	255.875	63.507	63.598
900	5.826	1.632	7.458	202.489	53.401	255.890	63.193	63.091
901	5.837	1.620	7.457	202.894	53.015	255.910	63.040	63.128
902	5.847	1.611	7.457	203.222	52.703	255.925	63.153	63.346
903	5.857	1.600	7.457	203.588	52.354	255.942	63.233	63.351
904	5.868	1.589	7.457	203.966	51.993	255.960	63.108	63.366
905	5.881	1.576	7.457	204.429	51.552	255.981	63.032	63.074
906	5.894	1.563	7.457	204.877	51.127	256.004	62.519	62.738
907	5.906	1.550	7.457	205.299	50.725	256.023	63.051	63.144
908	5.917	1.540	7.457	205.650	50.391	256.041	62.976	63.235
909	5.927	1.530	7.456	206.010	50.048	256.058	63.227	63.484
910	5.938	1.518	7.456	206.399	49.676	256.075	63.654	64.020
911	5.948	1.508	7.456	206.748	49.343	256.091	63.830	64.187
912	5.959	1.497	7.456	207.123	48.986	256.108	63.683	64.093
913	5.970	1.486	7.456	207.508	48.617	256.125	63.585	63.941
914	5.980	1.476	7.456	207.859	48.282	256.141	63.139	63.396
915	5.990	1.465	7.456	208.208	47.950	256.157	63.128	63.379
916	6.001	1.454	7.455	208.585	47.590	256.175	63.238	63.611
917	6.010	1.445	7.455	208.907	47.282	256.190	63.274	63.915
918	6.022	1.433	7.455	209.315	46.891	256.206	63.509	63.847
919	6.032	1.423	7.455	209.648	46.573	256.221	62.961	63.555
920	6.043	1.411	7.455	210.060	46.178	256.237	63.113	63.401
921	6.055	1.399	7.454	210.475	45.780	256.256	63.140	63.393
922	6.068	1.386	7.454	210.911	45.364	256.275	62.646	62.964
923	6.079	1.375	7.454	211.301	44.992	256.293	62.549	63.040
924	6.091	1.363	7.454	211.716	44.596	256.311	62.812	63.502
925	6.103	1.351	7.454	212.118	44.208	256.327	62.763	63.357
926	6.114	1.339	7.453	212.516	43.827	256.343	62.693	63.297
927	6.125	1.328	7.453	212.910	43.450	256.360	62.327	63.011
928	6.138	1.315	7.453	213.347	43.030	256.377	62.159	62.792
929	6.147	1.305	7.453	213.676	42.715	256.391	62.060	62.696
930	6.156	1.296	7.453	213.983	42.420	256.404	61.699	62.376
931	6.163	1.289	7.453	214.223	42.190	256.413	61.736	62.572
932	6.170	1.283	7.452	214.450	41.971	256.421	61.617	62.415
933	6.175	1.278	7.452	214.618	41.810	256.428	61.423	62.183
934	6.179	1.274	7.452	214.757	41.677	256.434	61.371	62.130
935	6.181	1.271	7.452	214.837	41.599	256.437	61.012	61.823
936	6.185	1.267	7.452	214.976	41.466	256.442	60.698	61.486
937	6.187	1.265	7.452	215.066	41.380	256.446	60.521	61.481
938	6.190	1.262	7.452	215.156	41.293	256.449	60.249	61.320
939	6.193	1.259	7.452	215.267	41.186	256.453	60.698	61.597
940	6.200	1.252	7.452	215.488	40.974	256.462	60.877	61.852
941	6.207	1.245	7.452	215.749	40.722	256.471	60.655	61.645
942	6.213	1.238	7.451	215.955	40.524	256.479	60.553	61.501
943	6.219	1.232	7.451	216.180	40.308	256.488	60.247	61.199
944	6.224	1.227	7.451	216.333	40.160	256.493	59.932	60.851
945	6.228	1.223	7.451	216.490	40.009	256.498	59.869	60.924
946	6.234	1.217	7.451	216.691	39.814	256.505	59.689	60.811
947	6.237	1.214	7.451	216.798	39.711	256.509	59.600	60.763
948	6.243	1.208	7.451	217.001	39.515	256.515	59.460	60.704
949	6.247	1.203	7.451	217.151	39.369	256.520	59.209	60.392
950	6.255	1.195	7.450	217.420	39.109	256.529	58.931	60.273
951	6.257	1.193	7.450	217.500	39.031	256.532	58.821	60.211
952	6.265	1.185	7.450	217.763	38.776	256.539	58.754	60.052
953	6.269	1.181	7.450	217.910	38.634	256.543	58.961	60.256
954	6.275	1.175	7.450	218.097	38.452	256.549	59.051	60.514
955	6.281	1.168	7.450	218.329	38.227	256.556	58.962	60.500
956	6.287	1.163	7.449	218.515	38.045	256.560	58.981	60.525
957	6.292	1.157	7.449	218.695	37.870	256.564	58.664	60.169
958	6.296	1.153	7.449	218.843	37.725	256.568	58.420	59.993
959	6.303	1.145	7.449	219.093	37.481	256.573	58.196	59.846
960	6.309	1.139	7.449	219.295	37.283	256.579	58.012	59.654
961	6.316	1.133	7.448	219.522	37.062	256.584	57.923	59.644
962	6.323	1.125	7.448	219.771	36.818	256.589	57.852	59.666
963	6.330	1.118	7.448	220.009	36.584	256.593	57.846	59.666
964	6.337	1.110	7.447	220.282	36.317	256.599	57.913	59.731
965	6.345	1.102	7.447	220.529	36.073	256.602	57.665	59.512
966	6.352	1.094	7.447	220.801	35.807	256.607	57.525	59.458
967	6.360	1.086	7.446	221.071	35.540	256.611	57.640	59.570
968	6.368	1.078	7.446	221.342	35.274	256.616	57.676	59.444
969	6.378	1.068	7.446	221.694	34.930	256.624	57.764	59.770
970	6.389	1.056	7.445	222.065	34.565	256.630	57.617	59.697
971	6.399	1.046	7.445	222.408	34.227	256.635	57.287	59.352
972	6.410	1.034	7.444	222.792	33.849	256.641	56.923	58.947
973	6.420	1.023	7.444	223.159	33.488	256.647	56.688	58.633
974	6.430	1.014	7.443	223.483	33.170	256.653	56.367	58.639
975	6.438	1.004	7.443	223.789	32.867	256.656	56.197	58.510
976	6.447	0.995	7.442	224.101	32.558	256.659	56.114	58.505
977	6.456	0.986	7.442	224.404	32.258	256.662	56.169	58.627
978	6.466	0.976	7.441	224.743	31.921	256.664	56.144	58.658
979	6.475	0.966	7.441	225.070	31.596	256.666	55.945	58.348
980	6.485	0.955	7.440	225.408	31.262	256.670	55.960	58.517
981	6.494	0.946	7.440	225.729	30.943	256.672	55.905	58.485
982	6.505	0.934	7.439	226.107	30.568	256.675	55.781	58.195
983	6.516	0.923	7.439	226.475	30.205	256.679	55.705	58.241
984	6.526	0.912	7.438	226.829	29.853	256.682	55.406	58.014
985	6.537	0.901	7.438	227.218	29.467	256.685	55.080	57.844
986	6.547	0.890	7.437	227.578	29.107	256.686	54.729	57.523
987	6.559	0.878	7.436	227.970	28.716	256.686	54.224	57.256
988	6.570	0.866	7.436	228.352	28.332	256.684	53.903	56.889
989	6.581	0.854	7.435	228.731	27.953	256.684	53.660	56.717
990	6.592	0.843	7.434	229.115	27.568	256.682	53.432	56.586
991	6.602	0.831	7.433	229.488	27.191	256.679	53.279	56.440
992	6.613	0.819	7.433	229.872	26.805	256.676	53.148	56.451
993	6.624	0.807	7.432	230.254	26.418	256.672	53.032	56.454
994	6.635	0.796	7.431	230.629	26.039	256.668	52.920	56.324
995	6.646	0.784	7.430	231.013	25.651	256.664	52.790	56.256
996	6.657	0.772	7.429	231.394	25.265	256.659	52.725	56.249
997	6.668	0.760	7.428	231.774	24.880	256.653	52.375	55.971
998	6.679	0.749	7.428	232.147	24.501	256.648	51.922	55.569
999	6.689	0.737	7.427	232.517	24.124	256.641	51.543	55.360
1000	6.700	0.726	7.426	232.885	23.748	256.634	51.052	54.958
1001	6.711	0.714	7.425	233.249	23.377	256.625	50.583	54.522
1002	6.721	0.703	7.424	233.613	23.003	256.617	50.147	54.138
1003	6.731	0.692	7.423	233.967	22.640	256.608	49.733	53.854
1004	6.741	0.681	7.422	234.322	22.276	256.597	49.536	53.716
1005	6.751	0.670	7.421	234.670	21.917	256.587	49.456	53.671
1006	6.761	0.659	7.420	234.997	21.579	256.577	49.190	53.536
1007	6.771	0.649	7.419	235.338	21.227	256.564	49.052	53.541
1008	6.781	0.638	7.418	235.686	20.866	256.551	48.695	53.232
1009	6.791	0.627	7.417	236.031	20.507	256.538	48.547	53.148
1010	6.800	0.616	7.416	236.372	20.152	256.524	48.406	52.998
1011	6.810	0.605	7.415	236.712	19.798	256.510	48.125	52.821
1012	6.820	0.594	7.414	237.052	19.444	256.496	47.683	52.444
1013	6.830	0.583	7.413	237.388	19.092	256.480	47.260	52.174
1014	6.839	0.573	7.412	237.720	18.743	256.464	46.898	51.794
1015	6.849	0.562	7.411	238.052	18.396	256.448	46.277	51.308
1016	6.858	0.552	7.410	238.374	18.057	256.431	45.975	51.007
1017	6.867	0.541	7.409	238.696	17.717	256.413	45.337	50.546
1018	6.876	0.531	7.408	239.009	17.386	256.395	44.881	50.094
1019	6.885	0.521	7.406	239.325	17.050	256.375	44.218	49.558
1020	6.894	0.511	7.405	239.626	16.730	256.356	43.832	49.296
1021	6.903	0.501	7.404	239.928	16.407	256.335	43.532	49.001
1022	6.911	0.492	7.403	240.230	16.083	256.314	43.069	48.624
1023	6.920	0.482	7.402	240.525	15.768	256.293	42.608	48.207
1024	6.928	0.472	7.401	240.818	15.454	256.272	42.064	47.917
1025	6.937	0.463	7.399	241.106	15.141	256.247	41.433	47.483
1026	6.945	0.453	7.398	241.393	14.829	256.221	40.796	46.991
1027	6.953	0.444	7.397	241.675	14.520	256.194	40.246	46.594
1028	6.961	0.434	7.395	241.952	14.214	256.167	39.760	46.082
1029	6.969	0.425	7.394	242.228	13.912	256.139	39.293	45.667
1030	6.977	0.416	7.393	242.497	13.615	256.112	38.949	45.483
1031	6.984	0.407	7.391	242.766	13.317	256.083	38.773	45.366
1032	6.992	0.398	7.390	243.032	13.021	256.053	38.700	45.413
1033	7.000	0.389	7.389	243.299	12.725	256.023	38.677	45.318
1034	7.007	0.380	7.387	243.561	12.433	255.994	38.486	45.217
1035	7.015	0.371	7.386	243.824	12.139	255.963	38.024	44.745
1036	7.022	0.362	7.384	244.084	11.849	255.933	37.508	43.961
1037	7.030	0.353	7.383	244.340	11.563	255.903	36.737	43.242
1038	7.037	0.345	7.382	244.590	11.284	255.874	36.238	42.674
1039	7.044	0.336	7.380	244.835	11.011	255.845	35.699	42.096
1040	7.051	0.328	7.379	245.078	10.738	255.816	35.324	41.928
1041	7.058	0.320	7.378	245.318	10.468	255.786	35.172	41.818
1042	7.065	0.312	7.376	245.556	10.198	255.754	34.756	41.582
1043	7.071	0.303	7.375	245.792	9.929	255.721	34.413	41.299
1044	7.078	0.295	7.373	246.024	9.665	255.689	34.104	40.924
1045	7.085	0.287	7.372	246.255	9.402	255.657	33.940	40.872
1046	7.091	0.279	7.371	246.483	9.140	255.623	33.615	40.686
1047	7.098	0.272	7.369	246.703	8.886	255.589	33.328	40.382
1048	7.104	0.264	7.368	246.925	8.630	255.556	32.879	39.961
1049	7.110	0.256	7.366	247.147	8.375	255.522	32.456	39.562
1050	7.117	0.248	7.365	247.365	8.123	255.488	31.919	39.008
1051	7.123	0.241	7.363	247.578	7.876	255.454	31.378	38.419
1052	7.129	0.233	7.362	247.788	7.631	255.419	30.949	37.934
1053	7.135	0.226	7.361	247.993	7.391	255.385	30.423	37.435
1054	7.141	0.219	7.359	248.195	7.155	255.350	30.122	37.152
1055	7.146	0.212	7.358	248.394	6.921	255.315	29.830	36.904
1056	7.152	0.204	7.356	248.591	6.689	255.280	29.673	36.892
1057	7.158	0.197	7.355	248.788	6.456	255.244	29.269	36.575
1058	7.163	0.190	7.353	248.981	6.226	255.207	28.827	36.124
1059	7.169	0.183	7.352	249.170	6.001	255.171	28.622	35.855
1060	7.174	0.177	7.351	249.352	5.784	255.136	28.289	35.575
1061	7.179	0.170	7.349	249.537	5.562	255.099	28.069	35.310
1062	7.184	0.163	7.348	249.717	5.348	255.065	27.760	34.995
1063	7.190	0.157	7.346	249.898	5.131	255.029	28.468	35.476
1064	7.195	0.150	7.345	250.082	4.914	254.996	29.941	36.530
1065	7.200	0.143	7.344	250.277	4.688	254.964	27.648	34.023
1066	7.206	0.137	7.342	250.456	4.477	254.933	24.607	30.987
1067	7.210	0.131	7.341	250.613	4.289	254.902	22.998	28.859
1068	7.214	0.126	7.340	250.761	4.112	254.873	21.726	27.586
1069	7.218	0.121	7.339	250.901	3.944	254.845	19.682	25.572
1070	7.222	0.116	7.338	251.021	3.796	254.817	19.491	25.589
1071	7.225	0.111	7.337	251.143	3.644	254.787	21.406	28.086
1072	7.229	0.106	7.335	251.281	3.473	254.754	22.972	29.753
1073	7.234	0.101	7.334	251.429	3.291	254.720	21.523	27.934
1074	7.237	0.095	7.333	251.564	3.124	254.688	20.854	26.910
1075	7.241	0.090	7.332	251.699	2.958	254.657	20.534	26.580
1076	7.245	0.086	7.331	251.827	2.802	254.628	20.462	26.624
1077	7.249	0.081	7.329	251.958	2.639	254.597	20.282	26.424
1078	7.253	0.076	7.328	252.087	2.481	254.567	19.813	25.833
1079	7.256	0.071	7.327	252.212	2.326	254.537	19.074	24.903
1080	7.260	0.066	7.326	252.333	2.175	254.508	18.182	23.805
1081	7.263	0.062	7.325	252.446	2.034	254.480	17.466	22.957
1082	7.266	0.058	7.324	252.553	1.901	254.454	17.172	22.514
1083	7.269	0.054	7.323	252.660	1.767	254.428	17.013	22.368
1084	7.272	0.050	7.322	252.767	1.633	254.400	16.694	21.990
1085	7.275	0.046	7.321	252.869	1.506	254.375	16.210	21.365
1086	7.278	0.042	7.320	252.971	1.378	254.350	15.892	20.970
1087	7.281	0.039	7.319	253.064	1.262	254.327	15.360	20.362
1088	7.283	0.035	7.318	253.156	1.146	254.302	14.871	19.773
1089	7.286	0.031	7.317	253.249	1.027	254.276	14.636	19.333
1090	7.289	0.028	7.317	253.340	0.915	254.254	14.357	18.923
1091	7.291	0.025	7.316	253.425	0.808	254.233	14.022	18.572
1092	7.294	0.021	7.315	253.513	0.698	254.211	13.626	18.059
1093	7.296	0.018	7.314	253.597	0.592	254.190	13.117	17.383
1094	7.298	0.015	7.313	253.669	0.503	254.171	12.612	16.695
1095	7.300	0.013	7.313	253.741	0.412	254.153	12.212	16.131
1096	7.302	0.010	7.312	253.809	0.327	254.136	12.091	15.940
1097	7.304	0.008	7.311	253.874	0.246	254.120	11.853	15.626
1098	7.306	0.005	7.311	253.947	0.154	254.100	11.422	15.098
1099	7.308	0.002	7.310	254.008	0.076	254.084	11.148	14.689
