Wavelength (nm) 	 Efficiency Div Wav 1 (%) 	 Efficiency Div Wav 2 (%) 	 Efficiency Div Wav total (%) 	 Jsc Div Wav 1 (A m^-2) 	 Jsc Div Wav 2 (A m^-2) 	 Jsc Div Wav total (A m^-2) 	 EQE Curve 1 (%) 	 EQE Curve 2 (%) 	Jsc 1 correction factor: 0.12747424180101746	Jsc 2 correction factor: 0.13134985171721028
400	0.000	3.789	3.789	0.000	68.650	68.650	14.124	11.562
401	0.001	3.786	3.788	0.048	68.609	68.658	15.055	12.501
402	0.003	3.784	3.787	0.103	68.563	68.667	15.145	12.457
403	0.005	3.781	3.786	0.161	68.515	68.675	14.847	12.445
404	0.006	3.779	3.785	0.215	68.467	68.683	14.425	12.315
405	0.008	3.776	3.784	0.269	68.420	68.689	14.494	12.395
406	0.009	3.773	3.783	0.323	68.373	68.695	14.630	12.285
407	0.011	3.771	3.782	0.375	68.327	68.702	15.044	12.613
408	0.012	3.768	3.781	0.428	68.281	68.709	15.178	12.719
409	0.014	3.766	3.780	0.484	68.232	68.717	15.343	12.726
410	0.016	3.763	3.778	0.546	68.180	68.725	15.515	12.815
411	0.017	3.760	3.778	0.599	68.135	68.734	15.474	12.862
412	0.019	3.757	3.776	0.659	68.084	68.743	15.576	12.899
413	0.021	3.754	3.775	0.723	68.030	68.753	15.643	12.759
414	0.023	3.752	3.774	0.784	67.977	68.761	15.736	12.997
415	0.024	3.749	3.773	0.845	67.925	68.770	15.553	12.881
416	0.026	3.746	3.772	0.909	67.871	68.780	15.812	13.102
417	0.028	3.743	3.771	0.975	67.815	68.790	16.477	13.272
418	0.030	3.739	3.769	1.043	67.758	68.801	16.057	13.589
419	0.032	3.736	3.768	1.106	67.703	68.809	16.111	13.613
420	0.034	3.733	3.767	1.173	67.645	68.818	15.788	13.375
421	0.035	3.730	3.766	1.233	67.593	68.825	15.699	13.366
422	0.037	3.727	3.764	1.302	67.532	68.834	15.702	13.586
423	0.039	3.724	3.763	1.369	67.472	68.841	16.068	13.738
424	0.041	3.720	3.762	1.437	67.413	68.849	16.108	13.738
425	0.043	3.717	3.760	1.504	67.354	68.858	15.623	13.556
426	0.045	3.714	3.759	1.572	67.293	68.865	15.672	13.906
427	0.047	3.710	3.758	1.638	67.233	68.871	16.151	14.082
428	0.049	3.707	3.756	1.704	67.174	68.878	16.011	14.032
429	0.051	3.704	3.755	1.771	67.113	68.884	15.799	13.719
430	0.053	3.701	3.754	1.832	67.058	68.890	15.785	13.922
431	0.054	3.698	3.752	1.880	67.013	68.894	16.189	14.528
432	0.055	3.696	3.751	1.926	66.971	68.897	16.301	14.560
433	0.058	3.692	3.750	2.003	66.900	68.903	16.388	14.586
434	0.060	3.689	3.748	2.075	66.835	68.910	15.962	14.557
435	0.062	3.685	3.747	2.140	66.773	68.913	16.546	14.692
436	0.064	3.681	3.745	2.216	66.705	68.920	16.434	14.693
437	0.066	3.677	3.743	2.297	66.630	68.927	16.161	14.521
438	0.068	3.673	3.741	2.379	66.554	68.932	16.410	15.037
439	0.071	3.669	3.740	2.453	66.484	68.937	17.112	15.441
440	0.073	3.665	3.738	2.527	66.416	68.942	17.162	15.297
441	0.075	3.661	3.736	2.612	66.337	68.949	16.983	15.328
442	0.078	3.657	3.734	2.696	66.259	68.956	17.170	15.729
443	0.080	3.652	3.732	2.787	66.174	68.961	17.775	16.234
444	0.083	3.647	3.730	2.882	66.085	68.967	17.663	16.095
445	0.086	3.642	3.728	2.975	65.998	68.973	17.732	16.159
446	0.088	3.637	3.726	3.072	65.906	68.978	18.399	16.555
447	0.091	3.633	3.724	3.163	65.822	68.985	18.322	16.584
448	0.094	3.627	3.721	3.266	65.725	68.991	18.940	16.802
449	0.097	3.622	3.719	3.374	65.626	69.001	18.766	17.210
450	0.100	3.616	3.716	3.481	65.525	69.007	19.271	17.540
451	0.103	3.610	3.714	3.596	65.417	69.014	18.446	17.124
452	0.107	3.604	3.711	3.711	65.308	69.019	18.078	17.084
453	0.110	3.598	3.708	3.818	65.203	69.021	18.444	17.706
454	0.113	3.593	3.706	3.920	65.102	69.022	19.112	18.258
455	0.116	3.587	3.703	4.033	64.991	69.024	20.042	18.840
456	0.119	3.580	3.700	4.152	64.875	69.027	20.301	19.334
457	0.123	3.574	3.697	4.277	64.753	69.030	20.463	19.504
458	0.127	3.567	3.693	4.404	64.628	69.032	20.584	19.224
459	0.130	3.560	3.690	4.529	64.507	69.036	20.445	19.260
460	0.134	3.553	3.687	4.654	64.386	69.040	20.682	19.688
461	0.137	3.547	3.684	4.779	64.264	69.043	21.425	20.328
462	0.141	3.539	3.681	4.914	64.132	69.046	21.399	20.332
463	0.145	3.532	3.677	5.051	63.998	69.048	21.380	20.584
464	0.149	3.524	3.674	5.188	63.861	69.049	21.260	20.753
465	0.153	3.517	3.670	5.321	63.727	69.048	21.364	20.422
466	0.157	3.510	3.667	5.452	63.597	69.049	21.183	21.152
467	0.161	3.502	3.663	5.586	63.459	69.045	21.459	21.353
468	0.164	3.495	3.659	5.716	63.326	69.042	21.711	21.370
469	0.168	3.487	3.656	5.854	63.187	69.041	21.895	21.790
470	0.172	3.479	3.652	5.993	63.044	69.037	22.971	22.688
471	0.176	3.471	3.648	6.134	62.901	69.035	22.531	22.479
472	0.181	3.463	3.644	6.276	62.755	69.031	21.031	21.750
473	0.185	3.455	3.640	6.416	62.607	69.022	22.875	23.342
474	0.189	3.447	3.635	6.561	62.453	69.014	23.900	23.878
475	0.193	3.438	3.631	6.717	62.294	69.011	22.638	23.233
476	0.198	3.429	3.627	6.870	62.132	69.002	22.541	23.282
477	0.202	3.420	3.622	7.016	61.976	68.992	23.739	24.364
478	0.206	3.411	3.618	7.172	61.811	68.982	23.781	24.203
479	0.211	3.402	3.613	7.334	61.641	68.975	23.696	24.661
480	0.216	3.392	3.608	7.492	61.470	68.962	23.180	24.003
481	0.220	3.383	3.603	7.650	61.302	68.952	22.580	23.919
482	0.225	3.374	3.598	7.804	61.134	68.938	23.328	24.744
483	0.229	3.364	3.593	7.965	60.958	68.923	23.931	25.162
484	0.234	3.354	3.588	8.128	60.782	68.910	24.346	25.491
485	0.239	3.345	3.583	8.291	60.606	68.897	24.505	26.253
486	0.243	3.335	3.578	8.455	60.424	68.879	24.638	26.191
487	0.247	3.327	3.574	8.589	60.276	68.866	24.976	26.770
488	0.252	3.317	3.569	8.742	60.108	68.851	26.674	28.270
489	0.257	3.307	3.563	8.921	59.914	68.835	27.885	29.497
490	0.262	3.296	3.558	9.095	59.723	68.819	28.083	29.705
491	0.267	3.284	3.552	9.293	59.508	68.801	28.322	29.855
492	0.273	3.273	3.546	9.484	59.301	68.785	28.380	30.286
493	0.278	3.262	3.540	9.668	59.098	68.766	29.602	30.998
494	0.284	3.249	3.533	9.873	58.876	68.749	29.844	30.874
495	0.290	3.237	3.527	10.076	58.660	68.735	29.850	31.688
496	0.296	3.224	3.520	10.291	58.423	68.714	30.152	31.956
497	0.302	3.212	3.514	10.499	58.196	68.695	28.771	31.307
498	0.308	3.199	3.507	10.701	57.969	68.670	29.297	31.058
499	0.314	3.187	3.501	10.903	57.749	68.652	30.999	32.715
500	0.320	3.174	3.494	11.116	57.518	68.634	32.230	33.696
501	0.326	3.161	3.487	11.338	57.279	68.617	31.734	32.989
502	0.332	3.149	3.481	11.550	57.052	68.602	32.613	33.469
503	0.339	3.136	3.474	11.770	56.821	68.590	33.950	34.851
504	0.345	3.122	3.467	12.008	56.568	68.577	34.705	35.075
505	0.352	3.109	3.461	12.236	56.331	68.567	31.746	32.703
506	0.358	3.096	3.454	12.461	56.093	68.554	33.066	33.796
507	0.366	3.081	3.447	12.705	55.836	68.541	34.531	34.404
508	0.373	3.068	3.440	12.949	55.586	68.535	32.139	32.768
509	0.379	3.055	3.434	13.171	55.353	68.524	30.570	32.240
510	0.385	3.042	3.427	13.392	55.112	68.504	31.070	32.009
511	0.392	3.029	3.420	13.613	54.878	68.491	30.260	31.381
512	0.398	3.016	3.414	13.832	54.644	68.476	32.365	33.680
513	0.405	3.002	3.406	14.072	54.387	68.459	33.566	34.274
514	0.412	2.988	3.399	14.308	54.138	68.446	32.551	33.211
515	0.418	2.975	3.393	14.531	53.903	68.434	34.451	35.416
516	0.425	2.961	3.386	14.776	53.645	68.420	34.793	35.064
517	0.432	2.946	3.379	15.024	53.386	68.410	35.271	35.053
518	0.438	2.935	3.373	15.231	53.174	68.405	38.280	36.696
519	0.446	2.921	3.366	15.487	52.921	68.408	36.939	35.892
520	0.452	2.907	3.360	15.728	52.680	68.408	37.002	36.079
521	0.460	2.893	3.353	15.990	52.416	68.407	37.522	35.889
522	0.468	2.878	3.346	16.262	52.149	68.410	37.553	35.366
523	0.476	2.863	3.339	16.540	51.879	68.419	38.657	37.256
524	0.484	2.848	3.332	16.810	51.611	68.421	38.141	36.779
525	0.492	2.833	3.324	17.098	51.325	68.423	36.664	35.583
526	0.500	2.817	3.317	17.373	51.050	68.424	37.880	36.461
527	0.508	2.802	3.310	17.650	50.776	68.426	39.017	37.026
528	0.515	2.789	3.304	17.900	50.532	68.432	40.270	37.276
529	0.523	2.773	3.297	18.194	50.251	68.445	39.745	36.874
530	0.532	2.757	3.289	18.499	49.959	68.458	40.614	36.808
531	0.541	2.742	3.283	18.800	49.678	68.478	40.737	36.747
532	0.550	2.725	3.275	19.117	49.382	68.500	40.866	36.789
533	0.559	2.709	3.268	19.432	49.089	68.522	41.535	36.752
534	0.567	2.695	3.262	19.719	48.828	68.547	41.383	37.585
535	0.576	2.679	3.255	20.026	48.540	68.567	42.371	38.398
536	0.585	2.662	3.248	20.345	48.242	68.587	41.122	36.565
537	0.595	2.646	3.241	20.669	47.945	68.614	42.528	37.391
538	0.604	2.631	3.234	20.978	47.664	68.643	44.236	38.029
539	0.613	2.614	3.227	21.319	47.363	68.682	45.109	37.922
540	0.623	2.598	3.221	21.659	47.069	68.728	45.826	37.943
541	0.633	2.582	3.215	21.992	46.786	68.777	47.303	38.373
542	0.642	2.567	3.209	22.323	46.508	68.832	50.286	40.105
543	0.653	2.549	3.203	22.707	46.193	68.900	49.921	40.281
544	0.664	2.532	3.196	23.083	45.881	68.964	49.630	39.310
545	0.675	2.515	3.190	23.472	45.564	69.036	47.868	38.712
546	0.686	2.498	3.184	23.839	45.258	69.097	48.078	38.726
547	0.696	2.481	3.177	24.204	44.956	69.159	49.392	38.443
548	0.707	2.464	3.171	24.583	44.651	69.234	50.047	39.178
549	0.718	2.448	3.166	24.958	44.349	69.307	51.606	39.591
550	0.730	2.430	3.160	25.360	44.031	69.391	52.627	39.898
551	0.741	2.413	3.154	25.764	43.715	69.478	53.051	40.774
552	0.753	2.395	3.148	26.173	43.391	69.564	52.534	39.976
553	0.765	2.377	3.142	26.587	43.067	69.654	53.692	40.472
554	0.777	2.359	3.136	26.999	42.746	69.746	51.448	39.088
555	0.788	2.342	3.130	27.403	42.430	69.833	51.588	38.617
556	0.800	2.324	3.124	27.812	42.115	69.927	51.555	37.967
557	0.812	2.307	3.119	28.216	41.809	70.025	52.281	37.957
558	0.823	2.291	3.114	28.614	41.510	70.125	54.591	39.492
559	0.835	2.273	3.109	29.040	41.193	70.233	54.313	39.284
560	0.847	2.257	3.104	29.443	40.893	70.336	55.581	39.870
561	0.859	2.240	3.099	29.862	40.583	70.445	56.515	40.392
562	0.872	2.221	3.093	30.315	40.250	70.564	54.117	38.902
563	0.884	2.204	3.088	30.728	39.943	70.671	54.065	38.447
564	0.896	2.187	3.083	31.156	39.630	70.786	56.744	39.384
565	0.909	2.170	3.079	31.600	39.312	70.911	57.624	40.117
566	0.922	2.152	3.074	32.055	38.985	71.039	61.723	41.683
567	0.935	2.134	3.069	32.515	38.664	71.179	62.429	42.510
568	0.950	2.115	3.064	33.013	38.315	71.328	60.585	41.817
569	0.964	2.096	3.059	33.494	37.972	71.466	60.450	41.686
570	0.977	2.077	3.054	33.960	37.641	71.601	59.436	40.598
571	0.990	2.060	3.050	34.421	37.318	71.738	61.335	41.408
572	1.004	2.042	3.045	34.882	36.997	71.879	61.261	41.315
573	1.018	2.023	3.041	35.368	36.660	72.027	63.776	42.736
574	1.032	2.004	3.036	35.879	36.306	72.185	66.602	44.429
575	1.047	1.984	3.031	36.409	35.941	72.350	64.475	43.887
576	1.062	1.964	3.026	36.913	35.588	72.501	63.252	43.371
577	1.076	1.945	3.021	37.403	35.241	72.645	62.288	42.618
578	1.090	1.925	3.016	37.902	34.889	72.791	59.587	40.419
579	1.104	1.908	3.011	38.362	34.567	72.929	60.601	40.714
580	1.117	1.890	3.007	38.839	34.238	73.077	61.627	41.322
581	1.132	1.871	3.002	39.335	33.895	73.230	63.861	42.595
582	1.146	1.851	2.998	39.850	33.541	73.391	66.548	44.163
583	1.162	1.831	2.993	40.395	33.168	73.564	64.873	44.027
584	1.178	1.810	2.987	40.936	32.790	73.726	64.427	44.041
585	1.193	1.789	2.982	41.470	32.415	73.884	62.498	42.919
586	1.208	1.769	2.977	41.985	32.051	74.036	62.398	42.310
587	1.222	1.749	2.972	42.488	31.699	74.187	63.442	42.602
588	1.237	1.729	2.967	43.012	31.336	74.348	64.707	43.378
589	1.253	1.709	2.962	43.536	30.974	74.510	65.738	44.198
590	1.266	1.692	2.958	43.998	30.653	74.651	67.348	45.345
591	1.280	1.672	2.953	44.500	30.305	74.805	62.479	42.999
592	1.295	1.653	2.948	45.001	29.949	74.950	63.422	43.413
593	1.309	1.633	2.943	45.499	29.598	75.098	64.304	43.776
594	1.324	1.614	2.937	46.013	29.238	75.252	63.674	43.279
595	1.338	1.594	2.932	46.519	28.884	75.403	63.243	42.880
596	1.353	1.575	2.928	47.018	28.536	75.553	62.510	42.544
597	1.367	1.555	2.922	47.527	28.178	75.706	62.285	42.563
598	1.382	1.535	2.917	48.036	27.820	75.856	63.028	42.851
599	1.397	1.516	2.912	48.543	27.464	76.007	63.920	43.323
600	1.411	1.496	2.907	49.058	27.104	76.163	64.854	43.792
601	1.427	1.475	2.902	49.590	26.734	76.324	65.314	43.963
602	1.442	1.455	2.897	50.119	26.367	76.486	65.014	43.675
603	1.457	1.435	2.892	50.638	26.007	76.645	64.343	42.971
604	1.472	1.415	2.887	51.164	25.645	76.809	65.011	43.480
605	1.488	1.395	2.882	51.705	25.272	76.977	64.845	43.586
606	1.503	1.374	2.877	52.245	24.897	77.143	65.306	43.670
607	1.519	1.353	2.872	52.791	24.522	77.313	63.625	42.818
608	1.534	1.333	2.867	53.322	24.153	77.475	62.547	42.204
609	1.549	1.313	2.862	53.846	23.789	77.635	61.387	41.416
610	1.564	1.293	2.857	54.358	23.433	77.790	60.128	40.801
611	1.578	1.274	2.852	54.855	23.085	77.939	61.151	41.190
612	1.593	1.255	2.847	55.362	22.733	78.095	63.724	42.505
613	1.608	1.234	2.842	55.899	22.364	78.262	66.427	44.049
614	1.624	1.213	2.837	56.451	21.987	78.437	68.504	45.110
615	1.640	1.193	2.833	57.004	21.611	78.615	67.723	44.421
616	1.656	1.171	2.828	57.574	21.226	78.800	65.781	43.096
617	1.672	1.151	2.823	58.112	20.864	78.975	62.908	41.737
618	1.686	1.132	2.819	58.619	20.517	79.136	60.572	40.376
619	1.701	1.113	2.814	59.126	20.167	79.294	59.152	39.638
620	1.715	1.094	2.809	59.627	19.822	79.449	58.539	39.403
621	1.730	1.075	2.805	60.123	19.478	79.601	60.873	40.646
622	1.745	1.055	2.800	60.645	19.119	79.764	65.201	43.058
623	1.760	1.035	2.795	61.183	18.753	79.935	68.041	44.563
624	1.776	1.014	2.790	61.741	18.376	80.117	68.770	44.691
625	1.793	0.993	2.786	62.306	17.998	80.303	67.135	43.614
626	1.808	0.973	2.781	62.854	17.631	80.485	64.616	42.045
627	1.823	0.953	2.777	63.381	17.276	80.658	63.501	41.477
628	1.839	0.934	2.772	63.913	16.918	80.831	62.593	41.149
629	1.853	0.915	2.768	64.410	16.582	80.992	63.255	41.541
630	1.868	0.896	2.764	64.934	16.227	81.161	63.758	41.868
631	1.883	0.876	2.759	65.454	15.875	81.329	63.798	41.957
632	1.898	0.856	2.755	65.984	15.516	81.501	64.931	42.608
633	1.913	0.837	2.750	66.503	15.166	81.669	65.126	42.482
634	1.929	0.816	2.746	67.059	14.793	81.852	65.362	42.532
635	1.945	0.796	2.741	67.609	14.424	82.032	65.875	42.639
636	1.961	0.775	2.737	68.172	14.048	82.220	65.940	42.563
637	1.977	0.755	2.732	68.724	13.681	82.405	65.636	42.330
638	1.994	0.734	2.728	69.291	13.304	82.596	65.367	41.927
639	2.010	0.713	2.723	69.861	12.927	82.788	64.610	41.269
640	2.026	0.693	2.719	70.421	12.558	82.979	64.344	41.143
641	2.042	0.673	2.715	70.971	12.196	83.167	64.093	40.961
642	2.058	0.653	2.711	71.521	11.835	83.355	65.224	41.515
643	2.074	0.633	2.707	72.080	11.468	83.548	65.584	41.459
644	2.090	0.612	2.703	72.649	11.098	83.747	66.072	41.341
645	2.107	0.592	2.699	73.222	10.729	83.951	65.770	40.865
646	2.123	0.572	2.695	73.799	10.360	84.158	64.369	40.084
647	2.139	0.552	2.691	74.346	10.009	84.354	63.857	39.347
648	2.154	0.533	2.688	74.885	9.666	84.551	63.085	38.752
649	2.170	0.515	2.685	75.414	9.331	84.745	63.289	38.676
650	2.184	0.497	2.682	75.929	9.007	84.935	64.694	39.053
651	2.200	0.479	2.679	76.460	8.676	85.136	66.066	39.177
652	2.216	0.459	2.676	77.039	8.322	85.361	66.565	39.034
653	2.233	0.441	2.673	77.601	7.982	85.583	65.680	38.223
654	2.249	0.422	2.671	78.175	7.638	85.813	64.915	37.180
655	2.265	0.403	2.668	78.733	7.308	86.041	63.619	36.312
656	2.280	0.386	2.667	79.256	7.001	86.257	62.704	35.552
657	2.293	0.372	2.665	79.708	6.737	86.445	63.896	35.378
658	2.307	0.357	2.664	80.191	6.461	86.653	64.578	35.040
659	2.323	0.340	2.663	80.737	6.156	86.893	65.165	34.592
660	2.339	0.323	2.662	81.293	5.852	87.145	66.348	34.192
661	2.355	0.306	2.661	81.864	5.548	87.412	65.069	33.079
662	2.371	0.290	2.661	82.421	5.257	87.678	64.067	31.793
663	2.387	0.275	2.662	82.967	4.978	87.945	63.474	30.710
664	2.402	0.260	2.662	83.507	4.709	88.216	62.490	29.847
665	2.418	0.245	2.663	84.045	4.445	88.490	62.594	28.996
666	2.434	0.231	2.665	84.597	4.181	88.778	63.947	28.526
667	2.450	0.216	2.666	85.162	3.921	89.083	65.210	27.889
668	2.467	0.202	2.669	85.734	3.669	89.403	65.594	27.003
669	2.483	0.189	2.672	86.310	3.424	89.735	65.690	25.823
670	2.500	0.176	2.676	86.898	3.187	90.084	65.448	24.583
671	2.517	0.163	2.680	87.479	2.962	90.441	63.313	23.095
672	2.533	0.152	2.685	88.039	2.752	90.791	63.018	21.878
673	2.549	0.141	2.690	88.592	2.553	91.145	63.581	20.958
674	2.565	0.130	2.695	89.155	2.362	91.517	63.084	19.919
675	2.581	0.120	2.701	89.710	2.182	91.892	64.440	19.025
676	2.597	0.111	2.708	90.273	2.011	92.284	64.899	17.978
677	2.614	0.102	2.716	90.851	1.847	92.698	63.888	16.712
678	2.630	0.094	2.724	91.416	1.694	93.110	63.616	15.590
679	2.646	0.086	2.732	91.979	1.553	93.532	62.928	14.505
680	2.662	0.078	2.741	92.532	1.421	93.953	62.207	13.519
681	2.678	0.072	2.750	93.084	1.298	94.382	63.301	12.667
682	2.694	0.065	2.759	93.643	1.182	94.825	63.885	11.790
683	2.710	0.059	2.770	94.211	1.074	95.286	63.763	10.921
684	2.727	0.054	2.780	94.771	0.976	95.747	63.738	10.036
685	2.743	0.049	2.791	95.327	0.885	96.212	63.474	9.201
686	2.759	0.044	2.803	95.885	0.801	96.686	62.022	8.414
687	2.774	0.040	2.814	96.419	0.726	97.145	61.020	7.664
688	2.785	0.037	2.822	96.800	0.678	97.478	62.643	7.106
689	2.798	0.035	2.832	97.253	0.625	97.878	61.865	6.530
690	2.811	0.032	2.843	97.704	0.577	98.281	62.630	5.992
691	2.825	0.029	2.854	98.179	0.529	98.709	63.960	5.501
692	2.839	0.027	2.866	98.688	0.485	99.173	63.933	5.038
693	2.854	0.024	2.879	99.211	0.443	99.653	63.420	4.608
694	2.869	0.022	2.891	99.726	0.405	100.130	63.375	4.198
695	2.884	0.020	2.904	100.237	0.369	100.606	63.345	3.846
696	2.899	0.019	2.917	100.757	0.336	101.093	63.742	3.511
697	2.914	0.017	2.931	101.281	0.306	101.587	64.378	3.188
698	2.930	0.015	2.945	101.843	0.277	102.120	64.904	2.895
699	2.946	0.014	2.960	102.401	0.251	102.652	64.160	2.616
700	2.962	0.013	2.974	102.941	0.229	103.169	63.574	2.368
701	2.977	0.011	2.988	103.471	0.208	103.678	63.858	2.167
702	2.992	0.010	3.003	104.000	0.189	104.189	63.619	1.989
703	3.007	0.009	3.017	104.528	0.172	104.700	64.363	1.812
704	3.023	0.009	3.031	105.067	0.156	105.223	65.654	1.654
705	3.039	0.008	3.047	105.633	0.142	105.775	65.156	1.501
706	3.055	0.007	3.062	106.200	0.129	106.329	63.778	1.346
707	3.071	0.006	3.078	106.751	0.117	106.868	63.837	1.220
708	3.087	0.006	3.093	107.303	0.106	107.409	63.913	1.120
709	3.103	0.005	3.108	107.852	0.096	107.948	62.753	1.033
710	3.119	0.005	3.123	108.396	0.087	108.483	62.632	0.936
711	3.134	0.004	3.139	108.945	0.079	109.023	65.658	0.859
712	3.151	0.004	3.155	109.516	0.071	109.587	66.212	0.788
713	3.167	0.004	3.171	110.092	0.064	110.156	65.012	0.717
714	3.183	0.003	3.187	110.649	0.058	110.707	64.278	0.648
715	3.199	0.003	3.202	111.206	0.053	111.259	63.969	0.590
716	3.215	0.003	3.217	111.741	0.047	111.789	65.364	0.546
717	3.231	0.002	3.233	112.295	0.042	112.337	66.235	0.507
718	3.245	0.002	3.247	112.788	0.038	112.826	67.173	0.465
719	3.258	0.002	3.260	113.253	0.034	113.287	67.531	0.426
720	3.270	0.002	3.272	113.674	0.032	113.705	66.496	0.388
721	3.283	0.002	3.285	114.116	0.029	114.145	66.065	0.351
722	3.297	0.001	3.299	114.601	0.026	114.627	65.738	0.323
723	3.313	0.001	3.314	115.153	0.024	115.176	65.187	0.295
724	3.327	0.001	3.329	115.656	0.021	115.677	67.052	0.274
725	3.341	0.001	3.342	116.137	0.018	116.155	68.282	0.253
726	3.355	0.001	3.356	116.619	0.017	116.636	68.426	0.233
727	3.370	0.001	3.370	117.122	0.016	117.138	68.361	0.214
728	3.384	0.001	3.385	117.628	0.014	117.643	67.030	0.193
729	3.398	0.001	3.399	118.105	0.013	118.118	66.294	0.177
730	3.412	0.001	3.412	118.579	0.012	118.591	66.256	0.163
731	3.426	0.001	3.427	119.092	0.011	119.102	67.089	0.151
732	3.440	0.001	3.441	119.584	0.009	119.593	68.598	0.140
733	3.456	0.000	3.456	120.125	0.008	120.133	69.007	0.128
734	3.472	0.000	3.473	120.693	0.007	120.699	69.111	0.117
735	3.489	0.000	3.490	121.282	0.005	121.287	67.846	0.107
736	3.506	0.000	3.506	121.850	0.004	121.854	67.050	0.097
737	3.522	0.000	3.522	122.408	0.003	122.411	67.362	0.090
738	3.538	0.000	3.538	122.969	0.001	122.971	67.086	0.082
739	3.554	0.000	3.554	123.539	0.000	123.539	68.504	0.077
740	3.571	0.000	3.571	124.106	0.000	124.106	69.230	0.071
741	3.587	0.000	3.587	124.691	0.000	124.691	68.436	0.065
742	3.604	0.000	3.604	125.270	0.000	125.270	68.075	0.059
743	3.621	0.000	3.621	125.846	0.000	125.846	67.422	0.054
744	3.637	0.000	3.637	126.429	0.000	126.429	66.918	0.050
745	3.654	0.000	3.654	127.013	0.000	127.013	67.866	0.046
746	3.671	0.000	3.671	127.606	0.000	127.606	68.152	0.042
747	3.688	0.000	3.688	128.201	0.000	128.201	68.865	0.039
748	3.706	0.000	3.706	128.804	0.000	128.804	69.299	0.036
749	3.723	0.000	3.723	129.405	0.000	129.405	68.646	0.033
750	3.740	0.000	3.740	130.003	0.000	130.003	67.837	0.030
751	3.757	0.000	3.757	130.595	0.000	130.595	67.580	0.028
752	3.774	0.000	3.774	131.179	0.000	131.179	67.528	0.026
753	3.791	0.000	3.791	131.769	0.000	131.769	68.212	0.024
754	3.808	0.000	3.808	132.360	0.000	132.360	68.487	0.022
755	3.825	0.000	3.825	132.966	0.000	132.966	68.629	0.020
756	3.843	0.000	3.843	133.568	0.000	133.568	68.705	0.019
757	3.860	0.000	3.860	134.165	0.000	134.165	67.427	0.017
758	3.877	0.000	3.877	134.753	0.000	134.753	66.815	0.016
759	3.894	0.000	3.894	135.336	0.000	135.336	66.794	0.014
760	3.910	0.000	3.910	135.904	0.000	135.904	66.878	0.013
761	3.914	0.000	3.914	136.033	0.000	136.033	67.154	0.012
762	3.916	0.000	3.916	136.108	0.000	136.108	67.884	0.007
763	3.926	0.000	3.926	136.446	0.000	136.446	67.798	0.009
764	3.931	0.000	3.931	136.633	0.000	136.633	67.222	0.010
765	3.939	0.000	3.939	136.897	0.000	136.897	66.786	0.007
766	3.948	0.000	3.948	137.230	0.000	137.230	66.180	0.005
767	3.959	0.000	3.959	137.621	0.000	137.621	66.476	0.006
768	3.973	0.000	3.973	138.090	0.000	138.090	66.719	0.004
769	3.988	0.000	3.988	138.627	0.000	138.627	66.727	0.004
770	4.004	0.000	4.004	139.170	0.000	139.170	66.818	0.005
771	4.020	0.000	4.020	139.731	0.000	139.731	66.755	0.005
772	4.036	0.000	4.036	140.297	0.000	140.297	66.150	0.003
773	4.053	0.000	4.053	140.864	0.000	140.864	65.948	0.005
774	4.069	0.000	4.069	141.430	0.000	141.430	65.655	0.004
775	4.085	0.000	4.085	141.995	0.000	141.995	65.472	0.004
776	4.101	0.000	4.101	142.558	0.000	142.558	65.832	0.004
777	4.118	0.000	4.118	143.126	0.000	143.126	65.836	0.002
778	4.134	0.000	4.134	143.694	0.000	143.694	65.550	0.003
779	4.150	0.000	4.150	144.260	0.000	144.260	65.087	0.003
780	4.167	0.000	4.167	144.823	0.000	144.823	64.251	0.003
781	4.182	0.000	4.182	145.374	0.000	145.374	64.040	0.003
782	4.198	0.000	4.198	145.925	0.000	145.925	63.985	0.003
783	4.214	0.000	4.214	146.476	0.000	146.476	64.432	0.002
784	4.230	0.000	4.230	147.030	0.000	147.030	64.586	0.002
785	4.246	0.000	4.246	147.582	0.000	147.582	64.836	0.002
786	4.262	0.000	4.262	148.137	0.000	148.137	64.476	0.002
787	4.278	0.000	4.278	148.694	0.000	148.694	63.776	0.002
788	4.293	0.000	4.293	149.235	0.000	149.235	63.194	0.002
789	4.309	0.000	4.309	149.768	0.000	149.768	62.864	0.002
790	4.324	0.000	4.324	150.299	0.000	150.299	63.154	0.002
791	4.339	0.000	4.339	150.811	0.000	150.811	63.311	0.001
792	4.354	0.000	4.354	151.336	0.000	151.336	63.360	0.001
793	4.369	0.000	4.369	151.858	0.000	151.858	62.968	0.001
794	4.384	0.000	4.384	152.371	0.000	152.371	62.124	0.001
795	4.398	0.000	4.398	152.884	0.000	152.884	61.763	0.001
796	4.413	0.000	4.413	153.394	0.000	153.394	61.220	0.001
797	4.427	0.000	4.427	153.889	0.000	153.889	61.146	0.001
798	4.442	0.000	4.442	154.396	0.000	154.396	61.446	0.001
799	4.457	0.000	4.457	154.909	0.000	154.909	61.887	0.001
800	4.471	0.000	4.471	155.418	0.000	155.418	61.904	0.001
801	4.486	0.000	4.486	155.921	0.000	155.921	61.399	0.001
802	4.500	0.000	4.500	156.427	0.000	156.427	60.886	0.000
803	4.515	0.000	4.515	156.930	0.000	156.930	60.497	0.001
804	4.529	0.000	4.529	157.420	0.000	157.420	60.450	0.001
805	4.543	0.000	4.543	157.918	0.000	157.918	60.956	0.001
806	4.557	0.000	4.557	158.408	0.000	158.408	61.330	0.001
807	4.572	0.000	4.572	158.922	0.000	158.922	61.143	0.000
808	4.587	0.000	4.587	159.429	0.000	159.429	61.010	0.000
809	4.601	0.000	4.601	159.936	0.000	159.936	60.543	0.001
810	4.615	0.000	4.615	160.426	0.000	160.426	60.056	0.001
811	4.629	0.000	4.629	160.913	0.000	160.913	60.036	0.001
812	4.643	0.000	4.643	161.400	0.000	161.400	60.250	0.000
813	4.657	0.000	4.657	161.877	0.000	161.877	60.745	0.000
814	4.671	0.000	4.671	162.350	0.000	162.350	61.110	0.000
815	4.683	0.000	4.683	162.778	0.000	162.778	60.887	0.000
816	4.695	0.000	4.695	163.201	0.000	163.201	60.738	0.000
817	4.707	0.000	4.707	163.595	0.000	163.595	59.884	0.000
818	4.718	0.000	4.718	163.993	0.000	163.993	59.571	0.000
819	4.729	0.000	4.729	164.375	0.000	164.375	60.070	0.000
820	4.741	0.000	4.741	164.799	0.000	164.799	60.276	0.000
821	4.753	0.000	4.753	165.204	0.000	165.204	60.169	0.000
822	4.766	0.000	4.766	165.673	0.000	165.673	60.041	0.000
823	4.779	0.000	4.779	166.121	0.000	166.121	59.670	0.000
824	4.788	0.000	4.788	166.437	0.000	166.437	59.536	0.000
825	4.801	0.000	4.801	166.874	0.000	166.874	59.754	0.000
826	4.814	0.000	4.814	167.329	0.000	167.329	59.606	0.000
827	4.827	0.000	4.827	167.766	0.000	167.766	59.767	0.000
828	4.840	0.000	4.840	168.230	0.000	168.230	60.703	0.000
829	4.852	0.000	4.852	168.638	0.000	168.638	61.101	0.000
830	4.865	0.000	4.865	169.087	0.000	169.087	60.784	0.000
831	4.877	0.000	4.877	169.527	0.000	169.527	60.495	0.000
832	4.890	0.000	4.890	169.969	0.000	169.969	59.909	0.000
833	4.902	0.000	4.902	170.395	0.000	170.395	59.889	0.000
834	4.915	0.000	4.915	170.849	0.000	170.849	60.305	0.000
835	4.928	0.000	4.928	171.296	0.000	171.296	60.499	0.000
836	4.942	0.000	4.942	171.778	0.000	171.778	60.568	0.000
837	4.956	0.000	4.956	172.247	0.000	172.247	60.302	0.000
838	4.970	0.000	4.970	172.733	0.000	172.733	59.764	0.000
839	4.983	0.000	4.983	173.209	0.000	173.209	59.916	0.000
840	4.997	0.000	4.997	173.689	0.000	173.689	59.768	0.000
841	5.011	0.000	5.011	174.174	0.000	174.174	59.943	0.000
842	5.025	0.000	5.025	174.660	0.000	174.660	60.421	0.000
843	5.039	0.000	5.039	175.143	0.000	175.143	60.798	0.000
844	5.053	0.000	5.053	175.634	0.000	175.634	61.216	0.000
845	5.067	0.000	5.067	176.120	0.000	176.120	61.205	0.000
846	5.081	0.000	5.081	176.621	0.000	176.621	61.036	0.000
847	5.096	0.000	5.096	177.122	0.000	177.122	60.939	0.000
848	5.110	0.000	5.110	177.610	0.000	177.610	60.788	0.000
849	5.124	0.000	5.124	178.097	0.000	178.097	60.988	0.000
850	5.138	0.000	5.138	178.584	0.000	178.584	61.353	0.000
851	5.151	0.000	5.151	179.029	0.000	179.029	61.782	0.000
852	5.165	0.000	5.165	179.518	0.000	179.518	61.626	0.000
853	5.179	0.000	5.179	180.004	0.000	180.004	61.438	0.000
854	5.193	0.000	5.193	180.486	0.000	180.486	61.232	0.000
855	5.205	0.000	5.205	180.910	0.000	180.910	61.311	0.000
856	5.218	0.000	5.218	181.367	0.000	181.367	61.772	0.000
857	5.232	0.000	5.232	181.857	0.000	181.857	62.118	0.000
858	5.247	0.000	5.247	182.361	0.000	182.361	62.397	0.000
859	5.261	0.000	5.261	182.868	0.000	182.868	62.288	0.000
860	5.276	0.000	5.276	183.374	0.000	183.374	61.988	0.000
861	5.290	0.000	5.290	183.878	0.000	183.878	62.100	0.000
862	5.305	0.000	5.305	184.381	0.000	184.381	61.988	0.000
863	5.319	0.000	5.319	184.889	0.000	184.889	62.226	0.000
864	5.334	0.000	5.334	185.401	0.000	185.401	62.507	0.000
865	5.348	0.000	5.348	185.906	0.000	185.906	62.233	0.000
866	5.363	0.000	5.363	186.402	0.000	186.402	61.855	0.000
867	5.375	0.000	5.375	186.836	0.000	186.836	62.082	0.000
868	5.389	0.000	5.389	187.307	0.000	187.307	62.118	0.000
869	5.403	0.000	5.403	187.800	0.000	187.800	61.982	0.000
870	5.417	0.000	5.417	188.290	0.000	188.290	62.552	0.000
871	5.432	0.000	5.432	188.793	0.000	188.793	62.534	0.000
872	5.446	0.000	5.446	189.290	0.000	189.290	62.375	0.000
873	5.460	0.000	5.460	189.793	0.000	189.793	62.705	0.000
874	5.475	0.000	5.475	190.294	0.000	190.294	62.737	0.000
875	5.489	0.000	5.489	190.787	0.000	190.787	62.762	0.000
876	5.503	0.000	5.503	191.274	0.000	191.274	62.542	0.000
877	5.517	0.000	5.517	191.772	0.000	191.772	62.508	0.000
878	5.532	0.000	5.532	192.273	0.000	192.273	62.494	0.000
879	5.546	0.000	5.546	192.773	0.000	192.773	62.292	0.000
880	5.560	0.000	5.560	193.264	0.000	193.264	62.272	0.000
881	5.574	0.000	5.574	193.756	0.000	193.756	62.532	0.000
882	5.588	0.000	5.588	194.235	0.000	194.235	62.274	0.000
883	5.602	0.000	5.602	194.725	0.000	194.725	62.350	0.000
884	5.616	0.000	5.616	195.214	0.000	195.214	62.513	0.000
885	5.630	0.000	5.630	195.707	0.000	195.707	62.506	0.000
886	5.645	0.000	5.645	196.207	0.000	196.207	62.535	0.000
887	5.659	0.000	5.659	196.689	0.000	196.689	62.304	0.000
888	5.673	0.000	5.673	197.171	0.000	197.171	62.405	0.000
889	5.687	0.000	5.687	197.660	0.000	197.660	62.647	0.000
890	5.701	0.000	5.701	198.159	0.000	198.159	62.600	0.000
891	5.715	0.000	5.715	198.652	0.000	198.652	62.389	0.000
892	5.729	0.000	5.729	199.145	0.000	199.145	62.761	0.000
893	5.743	0.000	5.743	199.632	0.000	199.632	62.904	0.000
894	5.757	0.000	5.757	200.103	0.000	200.103	63.451	0.000
895	5.770	0.000	5.770	200.565	0.000	200.565	63.461	0.000
896	5.783	0.000	5.783	201.009	0.000	201.009	63.504	0.000
897	5.795	0.000	5.795	201.426	0.000	201.426	63.628	0.000
898	5.806	0.000	5.806	201.792	0.000	201.792	63.786	0.000
899	5.817	0.000	5.817	202.187	0.000	202.187	63.507	0.000
900	5.826	0.000	5.826	202.489	0.000	202.489	63.193	0.000
901	5.837	0.000	5.837	202.894	0.000	202.894	63.040	0.000
902	5.847	0.000	5.847	203.222	0.000	203.222	63.153	0.000
903	5.857	0.000	5.857	203.588	0.000	203.588	63.233	0.000
904	5.868	0.000	5.868	203.966	0.000	203.966	63.108	0.000
905	5.881	0.000	5.881	204.429	0.000	204.429	63.032	0.000
906	5.894	0.000	5.894	204.877	0.000	204.877	62.519	0.000
907	5.906	0.000	5.906	205.299	0.000	205.299	63.051	0.000
908	5.917	0.000	5.917	205.650	0.000	205.650	62.976	0.000
909	5.927	0.000	5.927	206.010	0.000	206.010	63.227	0.000
910	5.938	0.000	5.938	206.399	0.000	206.399	63.654	0.000
911	5.948	0.000	5.948	206.748	0.000	206.748	63.830	0.000
912	5.959	0.000	5.959	207.123	0.000	207.123	63.683	0.000
913	5.970	0.000	5.970	207.508	0.000	207.508	63.585	0.000
914	5.980	0.000	5.980	207.859	0.000	207.859	63.139	0.000
915	5.990	0.000	5.990	208.208	0.000	208.208	63.128	0.000
916	6.001	0.000	6.001	208.585	0.000	208.585	63.238	0.000
917	6.010	0.000	6.010	208.907	0.000	208.907	63.274	0.000
918	6.022	0.000	6.022	209.315	0.000	209.315	63.509	0.000
919	6.032	0.000	6.032	209.648	0.000	209.648	62.961	0.000
920	6.043	0.000	6.043	210.060	0.000	210.060	63.113	0.000
921	6.055	0.000	6.055	210.475	0.000	210.475	63.140	0.000
922	6.068	0.000	6.068	210.911	0.000	210.911	62.646	0.000
923	6.079	0.000	6.079	211.301	0.000	211.301	62.549	0.000
924	6.091	0.000	6.091	211.716	0.000	211.716	62.812	0.000
925	6.103	0.000	6.103	212.118	0.000	212.118	62.763	0.000
926	6.114	0.000	6.114	212.516	0.000	212.516	62.693	0.000
927	6.125	0.000	6.125	212.910	0.000	212.910	62.327	0.000
928	6.138	0.000	6.138	213.347	0.000	213.347	62.159	0.000
929	6.147	0.000	6.147	213.676	0.000	213.676	62.060	0.000
930	6.156	0.000	6.156	213.983	0.000	213.983	61.699	0.000
931	6.163	0.000	6.163	214.223	0.000	214.223	61.736	0.000
932	6.170	0.000	6.170	214.450	0.000	214.450	61.617	0.000
933	6.175	0.000	6.175	214.618	0.000	214.618	61.423	0.000
934	6.179	0.000	6.179	214.757	0.000	214.757	61.371	0.000
935	6.181	0.000	6.181	214.837	0.000	214.837	61.012	0.000
936	6.185	0.000	6.185	214.976	0.000	214.976	60.698	0.000
937	6.187	0.000	6.187	215.066	0.000	215.066	60.521	0.000
938	6.190	0.000	6.190	215.156	0.000	215.156	60.249	0.000
939	6.193	0.000	6.193	215.267	0.000	215.267	60.698	0.000
940	6.200	0.000	6.200	215.488	0.000	215.488	60.877	0.000
941	6.207	0.000	6.207	215.749	0.000	215.749	60.655	0.000
942	6.213	0.000	6.213	215.955	0.000	215.955	60.553	0.000
943	6.219	0.000	6.219	216.180	0.000	216.180	60.247	0.000
944	6.224	0.000	6.224	216.333	0.000	216.333	59.932	0.000
945	6.228	0.000	6.228	216.490	0.000	216.490	59.869	0.000
946	6.234	0.000	6.234	216.691	0.000	216.691	59.689	0.000
947	6.237	0.000	6.237	216.798	0.000	216.798	59.600	0.000
948	6.243	0.000	6.243	217.001	0.000	217.001	59.460	0.000
949	6.247	0.000	6.247	217.151	0.000	217.151	59.209	0.000
950	6.255	0.000	6.255	217.420	0.000	217.420	58.931	0.000
951	6.257	0.000	6.257	217.500	0.000	217.500	58.821	0.000
952	6.265	0.000	6.265	217.763	0.000	217.763	58.754	0.000
953	6.269	0.000	6.269	217.910	0.000	217.910	58.961	0.000
954	6.275	0.000	6.275	218.097	0.000	218.097	59.051	0.000
955	6.281	0.000	6.281	218.329	0.000	218.329	58.962	0.000
956	6.287	0.000	6.287	218.515	0.000	218.515	58.981	0.000
957	6.292	0.000	6.292	218.695	0.000	218.695	58.664	0.000
958	6.296	0.000	6.296	218.843	0.000	218.843	58.420	0.000
959	6.303	0.000	6.303	219.093	0.000	219.093	58.196	0.000
960	6.309	0.000	6.309	219.295	0.000	219.295	58.012	0.000
961	6.316	0.000	6.316	219.522	0.000	219.522	57.923	0.000
962	6.323	0.000	6.323	219.771	0.000	219.771	57.852	0.000
963	6.330	0.000	6.330	220.009	0.000	220.009	57.846	0.000
964	6.337	0.000	6.337	220.282	0.000	220.282	57.913	0.000
965	6.345	0.000	6.345	220.529	0.000	220.529	57.665	0.000
966	6.352	0.000	6.352	220.801	0.000	220.801	57.525	0.000
967	6.360	0.000	6.360	221.071	0.000	221.071	57.640	0.000
968	6.368	0.000	6.368	221.342	0.000	221.342	57.676	0.000
969	6.378	0.000	6.378	221.694	0.000	221.694	57.764	0.000
970	6.389	0.000	6.389	222.065	0.000	222.065	57.617	0.000
971	6.399	0.000	6.399	222.408	0.000	222.408	57.287	0.000
972	6.410	0.000	6.410	222.792	0.000	222.792	56.923	0.000
973	6.420	0.000	6.420	223.159	0.000	223.159	56.688	0.000
974	6.430	0.000	6.430	223.483	0.000	223.483	56.367	0.000
975	6.438	0.000	6.438	223.789	0.000	223.789	56.197	0.000
976	6.447	0.000	6.447	224.101	0.000	224.101	56.114	0.000
977	6.456	0.000	6.456	224.404	0.000	224.404	56.169	0.000
978	6.466	0.000	6.466	224.743	0.000	224.743	56.144	0.000
979	6.475	0.000	6.475	225.070	0.000	225.070	55.945	0.000
980	6.485	0.000	6.485	225.408	0.000	225.408	55.960	0.000
981	6.494	0.000	6.494	225.729	0.000	225.729	55.905	0.000
982	6.505	0.000	6.505	226.107	0.000	226.107	55.781	0.000
983	6.516	0.000	6.516	226.475	0.000	226.475	55.705	0.000
984	6.526	0.000	6.526	226.829	0.000	226.829	55.406	0.000
985	6.537	0.000	6.537	227.218	0.000	227.218	55.080	0.000
986	6.547	0.000	6.547	227.578	0.000	227.578	54.729	0.000
987	6.559	0.000	6.559	227.970	0.000	227.970	54.224	0.000
988	6.570	0.000	6.570	228.352	0.000	228.352	53.903	0.000
989	6.581	0.000	6.581	228.731	0.000	228.731	53.660	0.001
990	6.592	0.000	6.592	229.115	0.000	229.115	53.432	0.002
991	6.602	0.000	6.602	229.488	0.000	229.488	53.279	0.001
992	6.613	0.000	6.613	229.872	0.000	229.872	53.148	0.000
993	6.624	0.000	6.624	230.254	0.000	230.254	53.032	0.000
994	6.635	0.000	6.635	230.629	0.000	230.629	52.920	0.002
995	6.646	0.000	6.646	231.013	0.000	231.013	52.790	0.000
996	6.657	0.000	6.657	231.394	0.000	231.394	52.725	0.000
997	6.668	0.000	6.668	231.774	0.000	231.774	52.375	0.000
998	6.679	0.000	6.679	232.147	0.000	232.147	51.922	0.000
999	6.689	0.000	6.689	232.517	0.000	232.517	51.543	0.000
1000	6.700	0.000	6.700	232.885	0.000	232.885	51.052	0.000
1001	6.711	0.000	6.711	233.249	0.000	233.249	50.583	0.000
1002	6.721	0.000	6.721	233.613	0.000	233.613	50.147	0.000
1003	6.731	0.000	6.731	233.967	0.000	233.967	49.733	0.000
1004	6.741	0.000	6.741	234.322	0.000	234.322	49.536	0.000
1005	6.751	0.000	6.751	234.670	0.000	234.670	49.456	0.000
1006	6.761	0.000	6.761	234.997	0.000	234.997	49.190	0.000
1007	6.771	0.000	6.771	235.338	0.000	235.338	49.052	0.000
1008	6.781	0.000	6.781	235.686	0.000	235.686	48.695	0.000
1009	6.791	0.000	6.791	236.031	0.000	236.031	48.547	0.000
1010	6.800	0.000	6.800	236.372	0.000	236.372	48.406	0.000
1011	6.810	0.000	6.810	236.712	0.000	236.712	48.125	0.000
1012	6.820	0.000	6.820	237.052	0.000	237.052	47.683	0.000
1013	6.830	0.000	6.830	237.388	0.000	237.388	47.260	0.000
1014	6.839	0.000	6.839	237.720	0.000	237.720	46.898	0.000
1015	6.849	0.000	6.849	238.052	0.000	238.052	46.277	0.000
1016	6.858	0.000	6.858	238.374	0.000	238.374	45.975	0.000
1017	6.867	0.000	6.867	238.696	0.000	238.696	45.337	0.000
1018	6.876	0.000	6.876	239.009	0.000	239.009	44.881	0.000
1019	6.885	0.000	6.885	239.325	0.000	239.325	44.218	0.000
1020	6.894	0.000	6.894	239.626	0.000	239.626	43.832	0.000
1021	6.903	0.000	6.903	239.928	0.000	239.928	43.532	0.000
1022	6.911	0.000	6.911	240.230	0.000	240.230	43.069	0.000
1023	6.920	0.000	6.920	240.525	0.000	240.525	42.608	0.000
1024	6.928	0.000	6.928	240.818	0.000	240.818	42.064	0.000
1025	6.937	0.000	6.937	241.106	0.000	241.106	41.433	0.000
1026	6.945	0.000	6.945	241.393	0.000	241.393	40.796	0.000
1027	6.953	0.000	6.953	241.675	0.000	241.675	40.246	0.000
1028	6.961	0.000	6.961	241.952	0.000	241.952	39.760	0.000
1029	6.969	0.000	6.969	242.228	0.000	242.228	39.293	0.000
1030	6.977	0.000	6.977	242.497	0.000	242.497	38.949	0.000
1031	6.984	0.000	6.984	242.766	0.000	242.766	38.773	0.000
1032	6.992	0.000	6.992	243.032	0.000	243.032	38.700	0.000
1033	7.000	0.000	7.000	243.299	0.000	243.299	38.677	0.000
1034	7.007	0.000	7.007	243.561	0.000	243.561	38.486	0.000
1035	7.015	0.000	7.015	243.824	0.000	243.824	38.024	0.000
1036	7.022	0.000	7.022	244.084	0.000	244.084	37.508	0.000
1037	7.030	0.000	7.030	244.340	0.000	244.340	36.737	0.000
1038	7.037	0.000	7.037	244.590	0.000	244.590	36.238	0.000
1039	7.044	0.000	7.044	244.835	0.000	244.835	35.699	0.000
1040	7.051	0.000	7.051	245.078	0.000	245.078	35.324	0.000
1041	7.058	0.000	7.058	245.318	0.000	245.318	35.172	0.000
1042	7.065	0.000	7.065	245.556	0.000	245.556	34.756	0.000
1043	7.071	0.000	7.071	245.792	0.000	245.792	34.413	0.000
1044	7.078	0.000	7.078	246.024	0.000	246.024	34.104	0.000
1045	7.085	0.000	7.085	246.255	0.000	246.255	33.940	0.001
1046	7.091	0.000	7.091	246.483	0.000	246.483	33.615	0.001
1047	7.098	0.000	7.098	246.703	0.000	246.703	33.328	0.001
1048	7.104	0.000	7.104	246.925	0.000	246.925	32.879	0.000
1049	7.110	0.000	7.110	247.147	0.000	247.147	32.456	0.000
1050	7.117	0.000	7.117	247.365	0.000	247.365	31.919	0.001
1051	7.123	0.000	7.123	247.578	0.000	247.578	31.378	0.001
1052	7.129	0.000	7.129	247.788	0.000	247.788	30.949	0.000
1053	7.135	0.000	7.135	247.993	0.000	247.993	30.423	0.000
1054	7.141	0.000	7.141	248.195	0.000	248.195	30.122	0.001
1055	7.146	0.000	7.146	248.394	0.000	248.394	29.830	0.000
1056	7.152	0.000	7.152	248.591	0.000	248.591	29.673	0.000
1057	7.158	0.000	7.158	248.788	0.000	248.788	29.269	0.000
1058	7.163	0.000	7.163	248.981	0.000	248.981	28.827	0.000
1059	7.169	0.000	7.169	249.170	0.000	249.170	28.622	0.000
1060	7.174	0.000	7.174	249.352	0.000	249.352	28.289	0.000
1061	7.179	0.000	7.179	249.537	0.000	249.537	28.069	0.000
1062	7.184	0.000	7.184	249.717	0.000	249.717	27.760	0.000
1063	7.190	0.000	7.190	249.898	0.000	249.898	28.468	0.000
1064	7.195	0.000	7.195	250.082	0.000	250.082	29.941	0.000
1065	7.200	0.000	7.200	250.277	0.000	250.277	27.648	0.000
1066	7.206	0.000	7.206	250.456	0.000	250.456	24.607	0.000
1067	7.210	0.000	7.210	250.613	0.000	250.613	22.998	0.000
1068	7.214	0.000	7.214	250.761	0.000	250.761	21.726	0.000
1069	7.218	0.000	7.218	250.901	0.000	250.901	19.682	0.000
1070	7.222	0.000	7.222	251.021	0.000	251.021	19.491	0.000
1071	7.225	0.000	7.225	251.143	0.000	251.143	21.406	0.000
1072	7.229	0.000	7.229	251.281	0.000	251.281	22.972	0.000
1073	7.234	0.000	7.234	251.429	0.000	251.429	21.523	0.000
1074	7.237	0.000	7.237	251.564	0.000	251.564	20.854	0.000
1075	7.241	0.000	7.241	251.699	0.000	251.699	20.534	0.000
1076	7.245	0.000	7.245	251.827	0.000	251.827	20.462	0.000
1077	7.249	0.000	7.249	251.958	0.000	251.958	20.282	0.000
1078	7.253	0.000	7.253	252.087	0.000	252.087	19.813	0.000
1079	7.256	0.000	7.256	252.212	0.000	252.212	19.074	0.000
1080	7.260	0.000	7.260	252.333	0.000	252.333	18.182	0.000
1081	7.263	0.000	7.263	252.446	0.000	252.446	17.466	0.000
1082	7.266	0.000	7.266	252.553	0.000	252.553	17.172	0.000
1083	7.269	0.000	7.269	252.660	0.000	252.660	17.013	0.000
1084	7.272	0.000	7.272	252.767	0.000	252.767	16.694	0.000
1085	7.275	0.000	7.275	252.869	0.000	252.869	16.210	0.000
1086	7.278	0.000	7.278	252.971	0.000	252.971	15.892	0.000
1087	7.281	0.000	7.281	253.064	0.000	253.064	15.360	0.000
1088	7.283	0.000	7.283	253.156	0.000	253.156	14.871	0.000
1089	7.286	0.000	7.286	253.249	0.000	253.249	14.636	0.000
1090	7.289	0.000	7.289	253.340	0.000	253.340	14.357	0.001
1091	7.291	0.000	7.291	253.425	0.000	253.425	14.022	0.002
1092	7.294	0.000	7.294	253.513	0.000	253.513	13.626	0.002
1093	7.296	0.000	7.296	253.597	0.000	253.597	13.117	0.002
1094	7.298	0.000	7.298	253.669	0.000	253.669	12.612	0.003
1095	7.300	0.000	7.300	253.741	0.000	253.741	12.212	0.002
1096	7.302	0.000	7.302	253.809	0.000	253.809	12.091	0.000
1097	7.304	0.000	7.304	253.874	0.000	253.874	11.853	0.000
1098	7.306	0.000	7.306	253.947	0.000	253.947	11.422	0.000
1099	7.308	0.000	7.308	254.008	0.000	254.008	11.148	0.000
