Wavelength (nm) 	 Efficiency Div Wav 1 (%) 	 Efficiency Div Wav 2 (%) 	 Efficiency Div Wav total (%) 	 Jsc Div Wav 1 (A m^-2) 	 Jsc Div Wav 2 (A m^-2) 	 Jsc Div Wav total (A m^-2) 	 EQE Curve 1 (%) 	 EQE Curve 2 (%) 	Jsc 1 correction factor: 0.11138078088588836	Jsc 2 correction factor: 0.12747424180101746
400	0.000	7.310	7.310	0.000	254.069	254.069	25.882	14.124
401	0.004	7.308	7.312	0.078	254.020	254.098	28.075	15.055
402	0.008	7.307	7.315	0.167	253.966	254.133	28.702	15.145
403	0.013	7.305	7.318	0.262	253.908	254.170	28.444	14.847
404	0.017	7.303	7.321	0.353	253.853	254.207	27.922	14.425
405	0.022	7.302	7.324	0.444	253.800	254.244	27.980	14.494
406	0.026	7.300	7.326	0.534	253.746	254.280	28.449	14.630
407	0.031	7.299	7.329	0.623	253.694	254.317	29.270	15.044
408	0.035	7.297	7.332	0.713	253.641	254.353	29.922	15.178
409	0.040	7.296	7.335	0.810	253.585	254.394	30.587	15.343
410	0.045	7.294	7.339	0.917	253.523	254.440	30.901	15.515
411	0.050	7.292	7.342	1.009	253.470	254.479	31.634	15.474
412	0.055	7.291	7.345	1.115	253.410	254.525	32.048	15.576
413	0.060	7.289	7.349	1.230	253.346	254.576	32.007	15.643
414	0.066	7.287	7.353	1.340	253.285	254.625	32.555	15.736
415	0.071	7.285	7.357	1.451	253.224	254.675	32.540	15.553
416	0.077	7.283	7.360	1.567	253.160	254.727	33.401	15.812
417	0.083	7.281	7.365	1.690	253.094	254.783	33.853	16.477
418	0.089	7.280	7.369	1.812	253.026	254.838	34.349	16.057
419	0.095	7.278	7.373	1.931	252.962	254.894	34.766	16.111
420	0.101	7.276	7.377	2.057	252.896	254.953	34.381	15.788
421	0.107	7.274	7.381	2.172	252.836	255.008	34.505	15.699
422	0.113	7.272	7.385	2.303	252.767	255.071	35.146	15.702
423	0.120	7.270	7.390	2.436	252.700	255.136	35.410	16.068
424	0.126	7.268	7.394	2.566	252.632	255.198	36.157	16.108
425	0.133	7.266	7.399	2.699	252.565	255.263	35.648	15.623
426	0.139	7.264	7.404	2.834	252.497	255.331	36.716	15.672
427	0.146	7.262	7.408	2.969	252.431	255.400	37.390	16.151
428	0.153	7.261	7.413	3.104	252.365	255.469	37.327	16.011
429	0.159	7.259	7.418	3.240	252.298	255.538	36.953	15.799
430	0.165	7.257	7.422	3.365	252.237	255.602	37.920	15.785
431	0.170	7.255	7.426	3.467	252.189	255.656	39.838	16.189
432	0.175	7.254	7.429	3.565	252.143	255.708	39.411	16.301
433	0.183	7.252	7.435	3.728	252.066	255.794	39.568	16.388
434	0.191	7.250	7.441	3.881	251.994	255.874	39.555	15.962
435	0.198	7.248	7.446	4.022	251.929	255.951	40.958	16.546
436	0.206	7.246	7.452	4.183	251.853	256.037	40.583	16.434
437	0.214	7.243	7.458	4.359	251.772	256.131	40.129	16.161
438	0.223	7.241	7.464	4.538	251.690	256.228	41.610	16.410
439	0.231	7.239	7.470	4.700	251.616	256.317	43.323	17.112
440	0.239	7.237	7.476	4.864	251.542	256.406	42.659	17.162
441	0.248	7.234	7.483	5.050	251.457	256.507	42.684	16.983
442	0.257	7.232	7.489	5.234	251.373	256.607	41.932	17.170
443	0.267	7.229	7.496	5.426	251.282	256.709	44.440	17.775
444	0.277	7.227	7.504	5.635	251.187	256.821	44.982	17.663
445	0.287	7.224	7.511	5.841	251.094	256.934	45.099	17.732
446	0.298	7.221	7.519	6.057	250.997	257.054	45.522	18.399
447	0.308	7.219	7.526	6.254	250.906	257.160	46.117	18.322
448	0.319	7.216	7.534	6.481	250.803	257.284	47.116	18.940
449	0.330	7.212	7.543	6.716	250.695	257.411	46.230	18.766
450	0.342	7.209	7.551	6.948	250.588	257.536	48.360	19.271
451	0.354	7.206	7.560	7.200	250.473	257.673	46.062	18.446
452	0.366	7.203	7.569	7.449	250.358	257.807	44.720	18.078
453	0.378	7.200	7.577	7.682	250.251	257.933	46.914	18.444
454	0.389	7.197	7.586	7.909	250.149	258.058	48.121	19.112
455	0.401	7.194	7.595	8.159	250.036	258.194	49.593	20.042
456	0.414	7.190	7.604	8.416	249.917	258.333	49.802	20.301
457	0.427	7.187	7.613	8.683	249.792	258.475	50.552	20.463
458	0.440	7.183	7.623	8.957	249.665	258.622	50.156	20.584
459	0.454	7.179	7.633	9.223	249.540	258.763	49.848	20.445
460	0.467	7.176	7.642	9.489	249.415	258.903	50.941	20.682
461	0.480	7.172	7.652	9.758	249.290	259.048	52.219	21.425
462	0.494	7.168	7.662	10.045	249.155	259.200	51.178	21.399
463	0.508	7.164	7.672	10.331	249.018	259.349	51.045	21.380
464	0.522	7.160	7.682	10.617	248.881	259.498	50.024	21.260
465	0.535	7.156	7.692	10.890	248.748	259.638	49.587	21.364
466	0.549	7.153	7.701	11.157	248.617	259.774	49.956	21.183
467	0.562	7.149	7.711	11.433	248.483	259.916	50.814	21.459
468	0.575	7.145	7.720	11.702	248.353	260.055	50.463	21.711
469	0.589	7.141	7.730	11.981	248.215	260.197	50.844	21.895
470	0.603	7.137	7.740	12.264	248.076	260.340	52.734	22.971
471	0.617	7.133	7.750	12.547	247.935	260.482	51.704	22.531
472	0.631	7.129	7.760	12.831	247.793	260.624	49.099	21.031
473	0.645	7.125	7.770	13.116	247.653	260.769	52.777	22.875
474	0.659	7.121	7.780	13.410	247.508	260.918	54.510	23.900
475	0.675	7.116	7.791	13.719	247.352	261.071	52.453	22.638
476	0.690	7.112	7.802	14.027	247.199	261.227	52.008	22.541
477	0.704	7.108	7.812	14.324	247.053	261.376	54.208	23.739
478	0.720	7.103	7.823	14.634	246.897	261.532	54.315	23.781
479	0.735	7.099	7.834	14.956	246.735	261.692	54.450	23.696
480	0.751	7.094	7.845	15.275	246.577	261.852	52.704	23.180
481	0.767	7.089	7.856	15.589	246.419	262.008	51.290	22.580
482	0.782	7.085	7.867	15.895	246.265	262.160	53.327	23.328
483	0.797	7.080	7.878	16.216	246.104	262.320	54.635	23.931
484	0.813	7.076	7.889	16.541	245.941	262.482	54.498	24.346
485	0.829	7.071	7.900	16.861	245.778	262.639	54.936	24.505
486	0.845	7.066	7.911	17.184	245.614	262.797	55.336	24.638
487	0.858	7.062	7.920	17.447	245.480	262.926	56.275	24.976
488	0.873	7.058	7.931	17.747	245.327	263.074	59.903	26.674
489	0.890	7.053	7.943	18.097	245.148	263.245	60.993	27.885
490	0.906	7.048	7.954	18.432	244.974	263.406	61.333	28.083
491	0.925	7.042	7.967	18.810	244.776	263.586	61.571	28.322
492	0.943	7.037	7.980	19.174	244.585	263.759	63.288	28.380
493	0.960	7.031	7.992	19.532	244.401	263.933	64.228	29.602
494	0.980	7.026	8.005	19.922	244.196	264.118	63.831	29.844
495	0.998	7.020	8.018	20.301	243.993	264.295	64.226	29.850
496	1.018	7.013	8.032	20.707	243.778	264.485	64.141	30.152
497	1.037	7.007	8.045	21.092	243.570	264.662	62.588	28.771
498	1.056	7.002	8.058	21.478	243.367	264.845	62.805	29.297
499	1.075	6.996	8.070	21.854	243.166	265.020	65.814	30.999
500	1.094	6.990	8.084	22.249	242.953	265.203	67.746	32.230
501	1.114	6.983	8.097	22.657	242.731	265.388	67.079	31.734
502	1.133	6.977	8.111	23.049	242.518	265.568	67.476	32.613
503	1.153	6.971	8.124	23.445	242.299	265.744	70.280	33.950
504	1.174	6.964	8.138	23.877	242.061	265.938	70.368	34.705
505	1.194	6.958	8.151	24.281	241.833	266.114	66.776	31.746
506	1.214	6.951	8.165	24.693	241.608	266.301	67.439	33.066
507	1.236	6.944	8.180	25.129	241.364	266.492	69.091	34.531
508	1.256	6.937	8.193	25.553	241.120	266.673	65.154	32.139
509	1.276	6.931	8.206	25.945	240.898	266.843	62.752	30.570
510	1.295	6.924	8.220	26.344	240.676	267.020	63.499	31.070
511	1.315	6.918	8.233	26.737	240.456	267.193	60.921	30.260
512	1.334	6.912	8.245	27.122	240.237	267.359	65.638	32.365
513	1.355	6.905	8.259	27.548	239.997	267.545	67.496	33.566
514	1.375	6.898	8.273	27.961	239.761	267.722	65.457	32.551
515	1.394	6.891	8.286	28.354	239.538	267.892	69.514	34.451
516	1.415	6.884	8.300	28.785	239.293	268.079	69.791	34.793
517	1.437	6.877	8.314	29.222	239.045	268.267	70.198	35.271
518	1.455	6.871	8.326	29.581	238.838	268.419	75.224	38.280
519	1.476	6.864	8.340	30.022	238.582	268.604	71.775	36.939
520	1.496	6.857	8.353	30.430	238.341	268.771	71.919	37.002
521	1.518	6.850	8.368	30.877	238.079	268.956	72.369	37.522
522	1.541	6.842	8.382	31.334	237.807	269.141	70.448	37.553
523	1.563	6.834	8.397	31.789	237.529	269.318	72.853	38.657
524	1.585	6.826	8.411	32.234	237.259	269.492	71.886	38.141
525	1.608	6.818	8.426	32.707	236.971	269.678	70.308	36.664
526	1.631	6.810	8.441	33.168	236.695	269.864	71.825	37.880
527	1.653	6.802	8.455	33.626	236.419	270.045	73.579	39.017
528	1.674	6.795	8.468	34.037	236.169	270.206	74.665	40.270
529	1.697	6.786	8.483	34.515	235.875	270.389	73.905	39.745
530	1.721	6.777	8.499	35.010	235.570	270.580	74.095	40.614
531	1.745	6.769	8.514	35.490	235.269	270.759	73.692	40.737
532	1.770	6.760	8.529	35.993	234.952	270.944	73.062	40.866
533	1.794	6.750	8.544	36.485	234.637	271.122	73.909	41.535
534	1.816	6.742	8.558	36.931	234.350	271.280	73.986	41.383
535	1.839	6.733	8.573	37.409	234.043	271.452	75.755	42.371
536	1.864	6.724	8.588	37.908	233.724	271.632	73.891	41.122
537	1.889	6.715	8.604	38.417	233.400	271.818	75.907	42.528
538	1.913	6.706	8.619	38.901	233.090	271.991	77.876	44.236
539	1.939	6.696	8.635	39.424	232.750	272.174	77.185	45.109
540	1.964	6.686	8.650	39.932	232.410	272.342	78.258	45.826
541	1.988	6.677	8.665	40.429	232.077	272.506	78.891	47.303
542	2.012	6.667	8.679	40.912	231.746	272.658	81.975	50.286
543	2.039	6.656	8.695	41.459	231.362	272.821	83.336	49.921
544	2.066	6.645	8.711	42.008	230.986	272.994	82.318	49.630
545	2.093	6.634	8.728	42.572	230.597	273.169	80.901	47.868
546	2.120	6.624	8.744	43.114	230.230	273.344	80.509	48.078
547	2.146	6.613	8.759	43.648	229.865	273.513	80.616	49.392
548	2.173	6.602	8.775	44.190	229.486	273.676	82.190	50.047
549	2.199	6.591	8.791	44.728	229.111	273.839	83.384	51.606
550	2.227	6.580	8.807	45.295	228.709	274.004	84.261	52.627
551	2.255	6.568	8.823	45.861	228.305	274.166	85.188	53.051
552	2.283	6.557	8.840	46.435	227.896	274.331	84.940	52.534
553	2.312	6.545	8.857	47.021	227.482	274.502	87.058	53.692
554	2.341	6.533	8.874	47.604	227.070	274.674	83.263	51.448
555	2.369	6.521	8.890	48.176	226.666	274.841	83.104	51.588
556	2.397	6.509	8.907	48.751	226.257	275.008	82.657	51.555
557	2.425	6.498	8.923	49.317	225.852	275.170	83.355	52.281
558	2.452	6.486	8.939	49.872	225.455	275.327	86.386	54.591
559	2.481	6.474	8.955	50.461	225.029	275.490	84.672	54.313
560	2.508	6.462	8.971	51.009	224.626	275.635	86.949	55.581
561	2.536	6.450	8.987	51.582	224.207	275.788	87.921	56.515
562	2.567	6.437	9.004	52.197	223.754	275.952	84.678	54.117
563	2.594	6.426	9.020	52.762	223.341	276.103	84.953	54.065
564	2.623	6.413	9.036	53.350	222.913	276.263	87.884	56.744
565	2.653	6.400	9.053	53.952	222.469	276.421	88.335	57.624
566	2.683	6.387	9.070	54.561	222.014	276.575	92.769	61.723
567	2.713	6.374	9.087	55.165	221.554	276.719	92.029	62.429
568	2.744	6.360	9.104	55.807	221.056	276.863	91.720	60.585
569	2.775	6.346	9.121	56.443	220.575	277.018	90.231	60.450
570	2.805	6.333	9.138	57.053	220.108	277.161	89.401	59.436
571	2.835	6.319	9.154	57.656	219.648	277.305	91.737	61.335
572	2.865	6.306	9.171	58.259	219.187	277.446	90.581	61.261
573	2.896	6.292	9.188	58.887	218.701	277.588	94.074	63.776
574	2.928	6.277	9.205	59.545	218.190	277.735	96.333	66.602
575	2.961	6.262	9.223	60.216	217.660	277.876	94.211	64.475
576	2.992	6.248	9.240	60.858	217.156	278.015	93.328	63.252
577	3.024	6.233	9.257	61.491	216.665	278.157	91.956	62.288
578	3.055	6.219	9.274	62.135	216.167	278.302	86.989	59.587
579	3.084	6.206	9.290	62.722	215.707	278.429	88.295	60.601
580	3.114	6.192	9.306	63.328	215.230	278.558	89.546	61.627
581	3.145	6.178	9.323	63.957	214.734	278.691	92.152	63.861
582	3.177	6.163	9.340	64.606	214.219	278.826	94.380	66.548
583	3.210	6.147	9.357	65.283	213.674	278.956	93.081	64.873
584	3.243	6.132	9.375	65.960	213.133	279.093	93.046	64.427
585	3.276	6.116	9.393	66.634	212.599	279.233	90.780	62.498
586	3.309	6.102	9.410	67.287	212.084	279.371	89.751	62.398
587	3.340	6.087	9.427	67.920	211.580	279.500	90.566	63.442
588	3.372	6.072	9.444	68.574	211.057	279.630	92.491	64.707
589	3.404	6.057	9.461	69.229	210.533	279.761	94.480	65.738
590	3.433	6.044	9.476	69.809	210.071	279.880	95.886	67.348
591	3.463	6.029	9.493	70.434	209.569	280.003	88.429	62.479
592	3.494	6.015	9.509	71.053	209.068	280.121	89.166	63.422
593	3.524	6.001	9.524	71.665	208.570	280.234	90.649	64.304
594	3.555	5.986	9.541	72.297	208.056	280.353	89.631	63.674
595	3.585	5.971	9.557	72.919	207.550	280.469	88.334	63.243
596	3.615	5.957	9.572	73.528	207.051	280.579	86.892	62.510
597	3.646	5.942	9.588	74.146	206.541	280.688	86.529	62.285
598	3.676	5.928	9.604	74.763	206.033	280.796	87.247	63.028
599	3.706	5.913	9.619	75.377	205.525	280.902	88.913	63.920
600	3.737	5.898	9.635	76.004	205.010	281.014	89.274	64.854
601	3.769	5.883	9.652	76.644	204.479	281.123	89.958	65.314
602	3.800	5.868	9.668	77.280	203.950	281.230	89.204	65.014
603	3.831	5.853	9.683	77.903	203.431	281.334	88.286	64.343
604	3.862	5.838	9.699	78.535	202.905	281.439	89.382	65.011
605	3.894	5.822	9.716	79.184	202.364	281.548	89.695	64.845
606	3.926	5.806	9.732	79.837	201.824	281.660	89.844	65.306
607	3.958	5.791	9.749	80.492	201.278	281.770	87.659	63.625
608	3.989	5.775	9.765	81.132	200.746	281.878	85.787	62.547
609	4.020	5.760	9.781	81.760	200.223	281.983	83.869	61.387
610	4.050	5.746	9.796	82.371	199.711	282.082	82.447	60.128
611	4.080	5.731	9.811	82.966	199.214	282.181	83.553	61.151
612	4.109	5.717	9.826	83.571	198.707	282.278	87.052	63.724
613	4.141	5.701	9.842	84.213	198.170	282.383	91.530	66.427
614	4.174	5.685	9.859	84.878	197.618	282.496	94.026	68.504
615	4.206	5.670	9.876	85.542	197.065	282.607	92.003	67.723
616	4.239	5.653	9.893	86.218	196.495	282.713	89.097	65.781
617	4.271	5.638	9.908	86.854	195.957	282.811	85.497	62.908
618	4.300	5.623	9.923	87.455	195.450	282.905	81.956	60.572
619	4.330	5.608	9.938	88.055	194.943	282.998	80.221	59.152
620	4.359	5.594	9.953	88.649	194.442	283.091	79.329	58.539
621	4.388	5.580	9.968	89.237	193.946	283.183	82.702	60.873
622	4.418	5.565	9.983	89.855	193.424	283.280	88.521	65.201
623	4.450	5.549	9.999	90.494	192.886	283.380	92.414	68.041
624	4.482	5.533	10.015	91.155	192.328	283.483	92.870	68.770
625	4.515	5.517	10.032	91.821	191.763	283.585	90.815	67.135
626	4.547	5.501	10.048	92.468	191.215	283.684	86.930	64.616
627	4.577	5.486	10.063	93.089	190.687	283.776	85.274	63.501
628	4.608	5.471	10.079	93.714	190.156	283.869	84.242	62.593
629	4.637	5.456	10.093	94.298	189.659	283.957	84.885	63.255
630	4.667	5.441	10.108	94.912	189.135	284.047	85.167	63.758
631	4.697	5.426	10.123	95.519	188.615	284.134	85.507	63.798
632	4.727	5.411	10.138	96.139	188.084	284.224	86.543	64.931
633	4.757	5.396	10.153	96.744	187.566	284.310	86.778	65.126
634	4.789	5.380	10.169	97.390	187.010	284.400	87.657	65.362
635	4.820	5.364	10.185	98.034	186.460	284.494	88.128	65.875
636	4.853	5.348	10.201	98.692	185.897	284.589	88.175	65.940
637	4.885	5.332	10.217	99.337	185.345	284.682	87.661	65.636
638	4.917	5.316	10.233	99.999	184.778	284.777	86.657	65.367
639	4.950	5.300	10.249	100.659	184.208	284.867	85.596	64.610
640	4.981	5.284	10.265	101.308	183.648	284.956	85.338	64.344
641	5.013	5.268	10.280	101.946	183.098	285.043	85.295	64.093
642	5.044	5.252	10.296	102.584	182.548	285.132	86.695	65.224
643	5.076	5.236	10.312	103.234	181.989	285.223	86.884	65.584
644	5.108	5.219	10.328	103.892	181.420	285.312	87.534	66.072
645	5.141	5.203	10.344	104.555	180.846	285.402	87.064	65.770
646	5.174	5.186	10.360	105.221	180.270	285.492	85.291	64.369
647	5.205	5.171	10.376	105.855	179.723	285.579	84.733	63.857
648	5.236	5.155	10.391	106.480	179.184	285.664	83.618	63.085
649	5.266	5.140	10.406	107.094	178.655	285.749	83.926	63.289
650	5.295	5.125	10.420	107.691	178.140	285.831	85.076	64.694
651	5.325	5.110	10.435	108.302	177.609	285.911	86.916	66.066
652	5.358	5.093	10.451	108.968	177.030	285.998	87.740	66.565
653	5.390	5.077	10.467	109.615	176.468	286.083	86.840	65.680
654	5.422	5.060	10.483	110.278	175.894	286.172	85.893	64.915
655	5.454	5.044	10.499	110.924	175.336	286.260	84.468	63.619
656	5.484	5.029	10.513	111.530	174.813	286.343	83.050	62.704
657	5.510	5.016	10.526	112.054	174.361	286.414	84.508	63.896
658	5.537	5.002	10.540	112.612	173.877	286.489	85.213	64.578
659	5.568	4.987	10.555	113.241	173.332	286.573	85.746	65.165
660	5.600	4.971	10.570	113.880	172.776	286.656	87.394	66.348
661	5.632	4.954	10.586	114.538	172.205	286.743	86.086	65.069
662	5.664	4.938	10.602	115.182	171.648	286.830	84.761	64.067
663	5.695	4.923	10.617	115.813	171.102	286.915	84.358	63.474
664	5.726	4.907	10.633	116.441	170.562	287.003	83.334	62.490
665	5.756	4.892	10.648	117.067	170.024	287.091	82.907	62.594
666	5.788	4.876	10.663	117.706	169.472	287.178	84.204	63.947
667	5.820	4.859	10.679	118.355	168.907	287.263	85.992	65.210
668	5.852	4.843	10.695	119.015	168.335	287.350	86.084	65.594
669	5.885	4.826	10.711	119.676	167.759	287.435	86.260	65.690
670	5.918	4.809	10.727	120.350	167.171	287.521	85.727	65.448
671	5.951	4.793	10.743	121.016	166.590	287.606	83.328	63.313
672	5.982	4.777	10.759	121.659	166.030	287.689	82.672	63.018
673	6.013	4.761	10.774	122.293	165.477	287.770	83.474	63.581
674	6.045	4.745	10.790	122.939	164.913	287.852	82.525	63.084
675	6.076	4.729	10.805	123.574	164.359	287.933	84.240	64.440
676	6.108	4.712	10.820	124.217	163.795	288.013	84.864	64.899
677	6.140	4.696	10.836	124.877	163.218	288.095	83.646	63.888
678	6.172	4.680	10.852	125.523	162.653	288.176	83.256	63.616
679	6.204	4.663	10.867	126.167	162.090	288.256	82.102	62.928
680	6.235	4.647	10.882	126.797	161.537	288.334	81.005	62.207
681	6.266	4.632	10.897	127.425	160.985	288.410	82.203	63.301
682	6.297	4.615	10.912	128.059	160.426	288.485	82.728	63.885
683	6.328	4.599	10.928	128.703	159.858	288.561	82.682	63.763
684	6.360	4.583	10.943	129.336	159.298	288.635	82.576	63.738
685	6.391	4.567	10.958	129.966	158.742	288.708	81.883	63.474
686	6.421	4.551	10.972	130.595	158.184	288.779	80.083	62.022
687	6.451	4.536	10.987	131.198	157.650	288.848	78.654	61.020
688	6.472	4.525	10.997	131.626	157.269	288.895	80.671	62.643
689	6.497	4.512	11.009	132.135	156.816	288.952	79.833	61.865
690	6.522	4.499	11.021	132.644	156.365	289.009	80.411	62.630
691	6.549	4.485	11.033	133.178	155.890	289.068	81.900	63.960
692	6.576	4.470	11.047	133.747	155.381	289.128	81.214	63.933
693	6.605	4.455	11.060	134.327	154.858	289.186	80.539	63.420
694	6.633	4.440	11.074	134.899	154.343	289.242	80.475	63.375
695	6.661	4.426	11.087	135.466	153.832	289.298	80.815	63.345
696	6.690	4.411	11.100	136.046	153.312	289.358	81.148	63.742
697	6.718	4.396	11.114	136.630	152.788	289.418	82.358	64.378
698	6.749	4.380	11.129	137.259	152.226	289.485	82.169	64.904
699	6.780	4.363	11.143	137.877	151.668	289.545	81.227	64.160
700	6.809	4.348	11.157	138.474	151.128	289.603	80.527	63.574
701	6.838	4.333	11.170	139.061	150.598	289.659	80.607	63.858
702	6.866	4.317	11.184	139.645	150.069	289.714	80.703	63.619
703	6.895	4.302	11.198	140.230	149.541	289.771	81.751	64.363
704	6.925	4.287	11.211	140.829	149.002	289.831	83.504	65.654
705	6.956	4.270	11.226	141.457	148.436	289.893	82.638	65.156
706	6.986	4.254	11.241	142.085	147.869	289.954	80.787	63.778
707	7.016	4.238	11.255	142.694	147.318	290.013	80.736	63.837
708	7.046	4.222	11.269	143.305	146.766	290.071	80.784	63.913
709	7.076	4.207	11.283	143.911	146.217	290.127	79.175	62.753
710	7.106	4.191	11.297	144.511	145.672	290.183	79.212	62.632
711	7.136	4.175	11.311	145.117	145.124	290.241	83.503	65.658
712	7.167	4.159	11.326	145.752	144.553	290.305	83.214	66.212
713	7.198	4.142	11.340	146.386	143.977	290.363	81.897	65.012
714	7.228	4.126	11.354	146.999	143.420	290.419	80.709	64.278
715	7.258	4.110	11.368	147.610	142.863	290.473	80.153	63.969
716	7.287	4.095	11.382	148.197	142.328	290.524	82.064	65.364
717	7.317	4.079	11.396	148.804	141.774	290.578	83.496	66.235
718	7.344	4.065	11.408	149.347	141.281	290.628	84.136	67.173
719	7.369	4.051	11.420	149.856	140.816	290.672	84.692	67.531
720	7.391	4.039	11.430	150.317	140.395	290.712	83.459	66.496
721	7.415	4.026	11.442	150.803	139.953	290.756	83.008	66.065
722	7.441	4.012	11.454	151.335	139.468	290.804	82.290	65.738
723	7.471	3.997	11.468	151.938	138.916	290.854	81.882	65.187
724	7.498	3.982	11.480	152.491	138.413	290.904	83.807	67.052
725	7.524	3.968	11.492	153.016	137.932	290.948	85.147	68.282
726	7.550	3.954	11.504	153.541	137.450	290.991	85.440	68.426
727	7.577	3.940	11.517	154.090	136.947	291.037	85.645	68.361
728	7.604	3.925	11.529	154.643	136.441	291.084	84.165	67.030
729	7.630	3.912	11.541	155.166	135.964	291.130	83.507	66.294
730	7.655	3.898	11.553	155.688	135.490	291.178	83.871	66.256
731	7.683	3.883	11.567	156.255	134.977	291.232	84.655	67.089
732	7.710	3.869	11.579	156.799	134.485	291.284	86.240	68.598
733	7.739	3.854	11.593	157.394	133.944	291.338	86.723	69.007
734	7.770	3.837	11.607	158.017	133.376	291.393	86.247	69.111
735	7.801	3.820	11.622	158.660	132.787	291.447	85.004	67.846
736	7.832	3.804	11.636	159.282	132.219	291.501	84.186	67.050
737	7.862	3.788	11.650	159.895	131.660	291.555	84.672	67.362
738	7.893	3.772	11.664	160.512	131.100	291.612	84.840	67.086
739	7.924	3.755	11.679	161.142	130.530	291.672	86.469	68.504
740	7.954	3.739	11.693	161.768	129.963	291.731	87.461	69.230
741	7.986	3.722	11.708	162.413	129.377	291.791	86.698	68.436
742	8.018	3.706	11.723	163.054	128.799	291.852	85.954	68.075
743	8.049	3.689	11.738	163.690	128.223	291.912	84.543	67.422
744	8.080	3.672	11.752	164.327	127.640	291.967	84.483	66.918
745	8.112	3.655	11.767	164.971	127.056	292.027	85.140	67.866
746	8.144	3.638	11.782	165.620	126.463	292.083	85.526	68.152
747	8.176	3.621	11.797	166.274	125.868	292.142	86.311	68.865
748	8.208	3.604	11.812	166.934	125.265	292.199	86.683	69.299
749	8.241	3.587	11.827	167.592	124.663	292.256	86.329	68.646
750	8.273	3.569	11.842	168.248	124.066	292.314	85.427	67.837
751	8.305	3.552	11.857	168.899	123.474	292.373	84.889	67.580
752	8.336	3.536	11.872	169.540	122.890	292.431	85.157	67.528
753	8.368	3.519	11.887	170.191	122.300	292.491	86.122	68.212
754	8.401	3.502	11.902	170.844	121.709	292.552	86.462	68.487
755	8.433	3.484	11.917	171.511	121.103	292.614	86.117	68.629
756	8.466	3.467	11.933	172.171	120.501	292.673	86.621	68.705
757	8.498	3.450	11.948	172.830	119.904	292.733	85.068	67.427
758	8.530	3.433	11.963	173.478	119.316	292.794	84.131	66.815
759	8.562	3.416	11.978	174.119	118.733	292.853	84.241	66.794
760	8.592	3.400	11.992	174.745	118.165	292.910	84.247	66.878
761	8.599	3.396	11.995	174.888	118.036	292.924	84.246	67.154
762	8.603	3.394	11.997	174.970	117.961	292.931	85.105	67.884
763	8.622	3.384	12.006	175.340	117.623	292.963	84.996	67.798
764	8.632	3.379	12.010	175.545	117.436	292.981	84.152	67.222
765	8.646	3.371	12.017	175.833	117.172	293.005	83.785	66.786
766	8.664	3.361	12.025	176.199	116.839	293.038	82.949	66.180
767	8.685	3.350	12.035	176.628	116.448	293.075	83.364	66.476
768	8.710	3.337	12.047	177.142	115.979	293.121	83.771	66.719
769	8.739	3.321	12.060	177.731	115.442	293.173	83.724	66.727
770	8.769	3.306	12.074	178.327	114.899	293.226	83.744	66.818
771	8.799	3.289	12.088	178.941	114.338	293.279	83.829	66.755
772	8.829	3.273	12.102	179.563	113.772	293.335	83.426	66.150
773	8.860	3.257	12.117	180.187	113.205	293.392	82.681	65.948
774	8.891	3.241	12.131	180.808	112.639	293.447	82.264	65.655
775	8.921	3.224	12.145	181.426	112.074	293.500	82.525	65.472
776	8.951	3.208	12.160	182.046	111.511	293.557	82.661	65.832
777	8.982	3.192	12.174	182.669	110.943	293.612	83.229	65.836
778	9.013	3.175	12.188	183.296	110.375	293.671	83.113	65.550
779	9.044	3.159	12.203	183.923	109.809	293.732	82.545	65.087
780	9.074	3.143	12.217	184.547	109.245	293.792	81.714	64.251
781	9.104	3.127	12.232	185.159	108.695	293.854	81.151	64.040
782	9.134	3.111	12.246	185.769	108.144	293.913	81.270	63.985
783	9.164	3.095	12.260	186.379	107.593	293.972	81.476	64.432
784	9.195	3.079	12.274	186.992	107.039	294.030	82.050	64.586
785	9.225	3.064	12.288	187.604	106.487	294.091	81.985	64.836
786	9.255	3.048	12.302	188.217	105.932	294.149	81.771	64.476
787	9.285	3.032	12.317	188.835	105.375	294.210	81.297	63.776
788	9.315	3.016	12.331	189.439	104.834	294.272	80.615	63.194
789	9.344	3.001	12.345	190.032	104.301	294.333	80.279	62.864
790	9.373	2.985	12.359	190.624	103.770	294.394	80.464	63.154
791	9.401	2.971	12.372	191.195	103.258	294.453	80.647	63.311
792	9.430	2.956	12.386	191.780	102.733	294.513	80.776	63.360
793	9.459	2.941	12.399	192.360	102.211	294.572	80.384	62.968
794	9.487	2.926	12.413	192.933	101.698	294.630	79.595	62.124
795	9.515	2.911	12.426	193.506	101.185	294.692	79.139	61.763
796	9.543	2.896	12.439	194.077	100.675	294.752	78.389	61.220
797	9.570	2.882	12.452	194.631	100.179	294.811	77.953	61.146
798	9.598	2.868	12.466	195.195	99.673	294.868	78.701	61.446
799	9.626	2.853	12.479	195.771	99.160	294.930	78.864	61.887
800	9.654	2.838	12.492	196.336	98.651	294.988	79.042	61.904
801	9.682	2.824	12.505	196.898	98.148	295.045	78.567	61.399
802	9.709	2.809	12.519	197.464	97.641	295.105	77.916	60.886
803	9.737	2.795	12.532	198.025	97.139	295.164	77.253	60.497
804	9.764	2.781	12.545	198.573	96.648	295.221	77.398	60.450
805	9.791	2.766	12.558	199.129	96.151	295.280	77.858	60.956
806	9.818	2.752	12.570	199.677	95.660	295.337	78.171	61.330
807	9.846	2.737	12.584	200.248	95.147	295.395	77.684	61.143
808	9.874	2.723	12.597	200.812	94.639	295.451	77.544	61.010
809	9.902	2.708	12.610	201.373	94.133	295.506	76.950	60.543
810	9.929	2.694	12.623	201.918	93.643	295.560	76.223	60.056
811	9.955	2.680	12.635	202.458	93.156	295.614	76.269	60.036
812	9.982	2.666	12.648	202.998	92.669	295.667	76.242	60.250
813	10.008	2.652	12.660	203.526	92.192	295.718	76.849	60.745
814	10.033	2.639	12.672	204.050	91.719	295.769	77.265	61.110
815	10.057	2.626	12.683	204.523	91.291	295.814	77.019	60.887
816	10.080	2.614	12.694	204.991	90.867	295.858	76.817	60.738
817	10.101	2.603	12.704	205.425	90.474	295.899	75.570	59.884
818	10.122	2.591	12.714	205.863	90.076	295.939	75.115	59.571
819	10.143	2.580	12.724	206.284	89.693	295.977	75.597	60.070
820	10.166	2.568	12.734	206.749	89.270	296.020	75.752	60.276
821	10.188	2.557	12.745	207.195	88.865	296.060	75.603	60.169
822	10.213	2.543	12.756	207.710	88.396	296.105	75.489	60.041
823	10.237	2.530	12.768	208.201	87.948	296.149	74.691	59.670
824	10.254	2.521	12.776	208.546	87.632	296.178	74.509	59.536
825	10.278	2.509	12.787	209.024	87.195	296.219	74.745	59.754
826	10.302	2.495	12.798	209.522	86.740	296.262	74.332	59.606
827	10.326	2.483	12.809	209.998	86.303	296.301	74.631	59.767
828	10.351	2.470	12.820	210.504	85.839	296.343	75.350	60.703
829	10.372	2.458	12.830	210.946	85.431	296.377	75.495	61.101
830	10.396	2.445	12.841	211.431	84.982	296.413	75.463	60.784
831	10.420	2.432	12.852	211.909	84.542	296.451	74.663	60.495
832	10.443	2.420	12.863	212.386	84.100	296.486	73.652	59.909
833	10.466	2.407	12.873	212.843	83.674	296.517	73.508	59.889
834	10.490	2.394	12.884	213.331	83.220	296.551	73.842	60.305
835	10.513	2.381	12.895	213.810	82.773	296.583	73.651	60.499
836	10.539	2.368	12.906	214.323	82.291	296.614	73.122	60.568
837	10.563	2.354	12.917	214.818	81.822	296.640	72.450	60.302
838	10.588	2.340	12.928	215.327	81.336	296.663	71.508	59.764
839	10.612	2.326	12.939	215.825	80.859	296.684	71.230	59.916
840	10.637	2.313	12.949	216.323	80.380	296.703	70.628	59.768
841	10.661	2.299	12.960	216.824	79.894	296.718	70.613	59.943
842	10.686	2.285	12.971	217.323	79.409	296.732	71.125	60.421
843	10.710	2.271	12.981	217.820	78.926	296.745	71.123	60.798
844	10.735	2.257	12.992	218.322	78.435	296.757	71.419	61.216
845	10.759	2.243	13.002	218.816	77.949	296.766	71.151	61.205
846	10.784	2.228	13.013	219.325	77.448	296.774	70.574	61.036
847	10.809	2.214	13.023	219.832	76.947	296.780	70.166	60.939
848	10.833	2.200	13.033	220.322	76.459	296.781	69.513	60.788
849	10.857	2.186	13.043	220.809	75.972	296.781	69.215	60.988
850	10.881	2.172	13.053	221.291	75.485	296.776	69.042	61.353
851	10.903	2.159	13.061	221.728	75.040	296.768	69.034	61.782
852	10.926	2.145	13.071	222.206	74.551	296.757	68.417	61.626
853	10.949	2.131	13.080	222.677	74.065	296.742	67.795	61.438
854	10.972	2.117	13.089	223.141	73.583	296.725	67.303	61.232
855	10.992	2.105	13.097	223.549	73.159	296.708	66.766	61.311
856	11.013	2.092	13.105	223.983	72.702	296.686	66.453	61.772
857	11.036	2.078	13.114	224.445	72.212	296.656	66.524	62.118
858	11.059	2.063	13.122	224.916	71.708	296.624	66.344	62.397
859	11.083	2.048	13.131	225.387	71.201	296.588	65.393	62.288
860	11.105	2.034	13.139	225.851	70.695	296.546	64.439	61.988
861	11.128	2.019	13.147	226.308	70.191	296.499	63.772	62.100
862	11.150	2.005	13.155	226.760	69.688	296.448	63.170	61.988
863	11.172	1.990	13.163	227.212	69.180	296.393	62.335	62.226
864	11.194	1.976	13.170	227.661	68.668	296.329	61.958	62.507
865	11.216	1.961	13.177	228.099	68.163	296.262	60.937	62.233
866	11.237	1.947	13.183	228.522	67.667	296.189	59.952	61.855
867	11.255	1.934	13.189	228.890	67.232	296.122	59.322	62.082
868	11.274	1.921	13.195	229.283	66.762	296.045	58.489	62.118
869	11.294	1.907	13.201	229.689	66.269	295.958	57.335	61.982
870	11.314	1.892	13.206	230.085	65.779	295.864	56.784	62.552
871	11.333	1.878	13.211	230.484	65.276	295.759	55.650	62.534
872	11.352	1.864	13.216	230.870	64.779	295.649	54.870	62.375
873	11.371	1.849	13.220	231.257	64.276	295.533	54.131	62.705
874	11.390	1.835	13.225	231.634	63.775	295.410	53.278	62.737
875	11.408	1.821	13.228	232.001	63.282	295.283	52.099	62.762
876	11.425	1.807	13.232	232.354	62.795	295.149	50.991	62.542
877	11.443	1.792	13.235	232.709	62.297	295.006	50.042	62.508
878	11.460	1.778	13.238	233.060	61.796	294.856	49.159	62.494
879	11.477	1.763	13.240	233.403	61.296	294.699	47.941	62.292
880	11.493	1.749	13.242	233.733	60.805	294.538	46.993	62.272
881	11.509	1.735	13.244	234.057	60.313	294.370	46.021	62.532
882	11.524	1.721	13.245	234.365	59.834	294.199	44.863	62.274
883	11.539	1.707	13.246	234.674	59.344	294.018	43.731	62.350
884	11.554	1.693	13.247	234.973	58.855	293.828	42.823	62.513
885	11.568	1.679	13.247	235.269	58.362	293.630	41.741	62.506
886	11.583	1.665	13.247	235.560	57.862	293.422	40.841	62.535
887	11.596	1.651	13.247	235.835	57.380	293.215	39.732	62.304
888	11.609	1.637	13.246	236.104	56.898	293.002	38.768	62.405
889	11.623	1.623	13.245	236.369	56.409	292.778	37.733	62.647
890	11.635	1.609	13.244	236.631	55.910	292.541	36.754	62.600
891	11.648	1.594	13.242	236.884	55.417	292.300	35.699	62.389
892	11.660	1.580	13.240	237.130	54.924	292.053	34.644	62.761
893	11.671	1.566	13.238	237.365	54.437	291.801	34.001	62.904
894	11.682	1.553	13.235	237.586	53.966	291.553	33.260	63.451
895	11.693	1.539	13.232	237.798	53.503	291.301	32.127	63.461
896	11.702	1.527	13.229	237.994	53.060	291.054	31.247	63.504
897	11.711	1.515	13.226	238.173	52.643	290.816	30.342	63.628
898	11.719	1.504	13.223	238.326	52.277	290.603	29.301	63.786
899	11.727	1.493	13.219	238.484	51.882	290.366	28.394	63.507
900	11.732	1.484	13.216	238.602	51.580	290.182	27.370	63.193
901	11.740	1.472	13.212	238.756	51.175	289.930	26.421	63.040
902	11.746	1.463	13.209	238.876	50.847	289.723	25.678	63.153
903	11.752	1.452	13.205	239.006	50.481	289.488	24.840	63.233
904	11.759	1.441	13.200	239.137	50.102	289.239	24.000	63.108
905	11.766	1.428	13.194	239.290	49.640	288.930	23.041	63.032
906	11.773	1.415	13.188	239.433	49.192	288.625	22.157	62.519
907	11.780	1.403	13.183	239.563	48.770	288.334	21.559	63.051
908	11.785	1.393	13.178	239.668	48.419	288.087	20.881	62.976
909	11.790	1.383	13.172	239.772	48.059	287.831	20.122	63.227
910	11.795	1.371	13.167	239.880	47.670	287.550	19.584	63.654
911	11.800	1.361	13.161	239.973	47.321	287.294	18.882	63.830
912	11.805	1.351	13.155	240.070	46.946	287.016	18.182	63.683
913	11.809	1.340	13.149	240.166	46.561	286.727	17.517	63.585
914	11.813	1.329	13.143	240.251	46.209	286.460	16.755	63.139
915	11.817	1.319	13.137	240.331	45.861	286.192	16.059	63.128
916	11.821	1.309	13.130	240.414	45.484	285.898	15.540	63.238
917	11.825	1.299	13.124	240.483	45.162	285.645	15.015	63.274
918	11.829	1.288	13.117	240.568	44.754	285.322	14.464	63.509
919	11.832	1.278	13.110	240.635	44.421	285.056	13.842	62.961
920	11.836	1.266	13.102	240.714	44.009	284.723	13.216	63.113
921	11.840	1.254	13.094	240.790	43.594	284.383	12.731	63.140
922	11.844	1.242	13.085	240.867	43.158	284.024	12.176	62.646
923	11.847	1.230	13.077	240.932	42.768	283.700	11.694	62.549
924	11.850	1.219	13.069	241.000	42.353	283.353	11.268	62.812
925	11.853	1.207	13.060	241.064	41.950	283.014	10.816	62.763
926	11.856	1.195	13.052	241.124	41.553	282.677	10.368	62.693
927	11.859	1.184	13.043	241.181	41.159	282.339	9.900	62.327
928	11.862	1.172	13.034	241.242	40.722	281.964	9.468	62.159
929	11.864	1.162	13.026	241.285	40.393	281.678	9.031	62.060
930	11.866	1.153	13.019	241.324	40.086	281.410	8.631	61.699
931	11.868	1.146	13.014	241.353	39.846	281.199	8.292	61.736
932	11.869	1.140	13.009	241.380	39.619	280.999	7.928	61.617
933	11.870	1.135	13.005	241.399	39.451	280.850	7.551	61.423
934	11.871	1.131	13.002	241.413	39.312	280.725	7.206	61.371
935	11.871	1.129	13.000	241.421	39.231	280.653	6.852	61.012
936	11.872	1.125	12.996	241.435	39.093	280.527	6.544	60.698
937	11.872	1.122	12.994	241.443	39.003	280.447	6.236	60.521
938	11.872	1.120	12.992	241.451	38.913	280.364	5.932	60.249
939	11.873	1.116	12.989	241.461	38.802	280.263	5.685	60.698
940	11.874	1.110	12.984	241.479	38.581	280.060	5.456	60.877
941	11.875	1.102	12.977	241.499	38.320	279.819	5.178	60.655
942	11.876	1.097	12.972	241.515	38.114	279.628	4.922	60.553
943	11.876	1.090	12.966	241.530	37.889	279.420	4.670	60.247
944	11.877	1.086	12.962	241.540	37.736	279.277	4.443	59.932
945	11.877	1.081	12.958	241.550	37.579	279.130	4.236	59.869
946	11.878	1.075	12.953	241.563	37.378	278.941	4.023	59.689
947	11.878	1.072	12.950	241.569	37.271	278.840	3.835	59.600
948	11.879	1.066	12.945	241.580	37.068	278.649	3.648	59.460
949	11.879	1.062	12.941	241.588	36.918	278.506	3.449	59.209
950	11.880	1.054	12.934	241.602	36.649	278.250	3.278	58.931
951	11.880	1.052	12.932	241.605	36.569	278.173	3.109	58.821
952	11.881	1.045	12.925	241.617	36.306	277.923	2.943	58.754
953	11.881	1.040	12.921	241.624	36.159	277.783	2.808	58.961
954	11.881	1.035	12.916	241.632	35.972	277.604	2.674	59.051
955	11.882	1.028	12.910	241.641	35.740	277.381	2.537	58.962
956	11.882	1.023	12.905	241.647	35.554	277.201	2.420	58.981
957	11.882	1.018	12.900	241.654	35.374	277.028	2.285	58.664
958	11.883	1.013	12.896	241.660	35.226	276.886	2.163	58.420
959	11.883	1.006	12.889	241.667	34.976	276.644	2.050	58.196
960	11.883	1.000	12.884	241.674	34.774	276.448	1.937	58.012
961	11.884	0.994	12.878	241.681	34.547	276.227	1.839	57.923
962	11.884	0.987	12.871	241.687	34.298	275.986	1.743	57.852
963	11.884	0.980	12.864	241.694	34.060	275.754	1.654	57.846
964	11.885	0.972	12.857	241.701	33.787	275.488	1.570	57.913
965	11.885	0.965	12.850	241.706	33.540	275.246	1.483	57.665
966	11.885	0.957	12.842	241.712	33.268	274.980	1.400	57.525
967	11.886	0.949	12.835	241.717	32.998	274.715	1.334	57.640
968	11.886	0.942	12.827	241.723	32.726	274.449	1.260	57.676
969	11.886	0.931	12.818	241.730	32.375	274.104	1.197	57.764
970	11.886	0.921	12.807	241.736	32.004	273.740	1.136	57.617
971	11.887	0.911	12.798	241.742	31.661	273.403	1.074	57.287
972	11.887	0.900	12.787	241.749	31.277	273.026	1.011	56.923
973	11.887	0.889	12.777	241.754	30.910	272.664	0.955	56.688
974	11.888	0.880	12.767	241.759	30.586	272.345	0.904	56.367
975	11.888	0.871	12.759	241.763	30.280	272.043	0.853	56.197
976	11.888	0.862	12.750	241.768	29.968	271.735	0.807	56.114
977	11.888	0.853	12.742	241.771	29.665	271.435	0.767	56.169
978	11.888	0.844	12.732	241.775	29.325	271.101	0.727	56.144
979	11.889	0.834	12.723	241.779	28.999	270.778	0.684	55.945
980	11.889	0.825	12.713	241.782	28.661	270.443	0.650	55.960
981	11.889	0.815	12.704	241.785	28.340	270.125	0.615	55.905
982	11.889	0.804	12.693	241.789	27.961	269.750	0.581	55.781
983	11.889	0.794	12.683	241.792	27.594	269.386	0.551	55.705
984	11.889	0.784	12.673	241.795	27.240	269.035	0.522	55.406
985	11.889	0.773	12.662	241.799	26.851	268.650	0.493	55.080
986	11.890	0.762	12.652	241.802	26.490	268.293	0.465	54.729
987	11.890	0.751	12.641	241.805	26.099	267.905	0.440	54.224
988	11.890	0.740	12.630	241.808	25.717	267.524	0.415	53.903
989	11.890	0.729	12.619	241.810	25.338	267.148	0.393	53.660
990	11.890	0.718	12.608	241.812	24.954	266.766	0.372	53.432
991	11.890	0.707	12.597	241.814	24.581	266.395	0.348	53.279
992	11.890	0.696	12.587	241.817	24.197	266.014	0.333	53.148
993	11.890	0.685	12.576	241.819	23.815	265.634	0.316	53.032
994	11.891	0.674	12.565	241.821	23.440	265.261	0.299	52.920
995	11.891	0.663	12.554	241.823	23.056	264.880	0.284	52.790
996	11.891	0.652	12.543	241.825	22.675	264.501	0.270	52.725
997	11.891	0.641	12.532	241.828	22.295	264.123	0.255	52.375
998	11.891	0.631	12.522	241.829	21.922	263.751	0.241	51.922
999	11.891	0.620	12.511	241.830	21.552	263.382	0.228	51.543
1000	11.891	0.609	12.501	241.831	21.184	263.015	0.216	51.052
1001	11.891	0.599	12.490	241.832	20.820	262.653	0.204	50.583
1002	11.891	0.589	12.480	241.833	20.456	262.289	0.194	50.147
1003	11.891	0.578	12.470	241.834	20.101	261.936	0.184	49.733
1004	11.891	0.568	12.459	241.836	19.747	261.583	0.174	49.536
1005	11.891	0.558	12.449	241.837	19.399	261.236	0.166	49.456
1006	11.891	0.549	12.440	241.838	19.071	260.909	0.157	49.190
1007	11.891	0.539	12.430	241.839	18.731	260.570	0.150	49.052
1008	11.892	0.529	12.420	241.840	18.383	260.223	0.142	48.695
1009	11.892	0.519	12.411	241.841	18.038	259.879	0.135	48.547
1010	11.892	0.509	12.401	241.842	17.697	259.539	0.129	48.406
1011	11.892	0.499	12.391	241.843	17.357	259.200	0.122	48.125
1012	11.892	0.490	12.381	241.844	17.017	258.861	0.116	47.683
1013	11.892	0.480	12.372	241.846	16.681	258.527	0.111	47.260
1014	11.892	0.470	12.362	241.847	16.349	258.195	0.105	46.898
1015	11.892	0.461	12.353	241.848	16.017	257.865	0.100	46.277
1016	11.892	0.452	12.343	241.849	15.695	257.544	0.095	45.975
1017	11.892	0.442	12.334	241.850	15.373	257.223	0.090	45.337
1018	11.892	0.433	12.325	241.850	15.060	256.910	0.086	44.881
1019	11.892	0.424	12.316	241.850	14.744	256.594	0.082	44.218
1020	11.892	0.416	12.308	241.850	14.443	256.293	0.078	43.832
1021	11.892	0.407	12.299	241.850	14.141	255.991	0.074	43.532
1022	11.892	0.398	12.290	241.850	13.839	255.689	0.071	43.069
1023	11.892	0.390	12.282	241.850	13.544	255.394	0.067	42.608
1024	11.892	0.381	12.273	241.850	13.251	255.101	0.064	42.064
1025	11.892	0.373	12.265	241.850	12.963	254.813	0.061	41.433
1026	11.892	0.365	12.257	241.850	12.676	254.526	0.059	40.796
1027	11.892	0.357	12.249	241.850	12.394	254.244	0.056	40.246
1028	11.892	0.349	12.241	241.850	12.116	253.966	0.053	39.760
1029	11.892	0.341	12.233	241.850	11.841	253.691	0.051	39.293
1030	11.892	0.333	12.225	241.850	11.572	253.422	0.048	38.949
1031	11.892	0.325	12.217	241.850	11.303	253.153	0.047	38.773
1032	11.892	0.318	12.210	241.850	11.037	252.887	0.045	38.700
1033	11.892	0.310	12.202	241.850	10.770	252.620	0.043	38.677
1034	11.892	0.302	12.194	241.850	10.508	252.358	0.041	38.486
1035	11.892	0.295	12.187	241.850	10.245	252.095	0.039	38.024
1036	11.892	0.287	12.179	241.850	9.985	251.835	0.037	37.508
1037	11.892	0.280	12.172	241.850	9.729	251.579	0.036	36.737
1038	11.892	0.273	12.165	241.850	9.479	251.329	0.034	36.238
1039	11.892	0.266	12.158	241.850	9.234	251.084	0.033	35.699
1040	11.892	0.259	12.151	241.850	8.991	250.841	0.031	35.324
1041	11.892	0.252	12.144	241.850	8.751	250.601	0.030	35.172
1042	11.892	0.245	12.137	241.850	8.513	250.363	0.029	34.756
1043	11.892	0.238	12.130	241.850	8.277	250.127	0.028	34.413
1044	11.892	0.231	12.123	241.850	8.045	249.895	0.027	34.104
1045	11.892	0.225	12.117	241.850	7.814	249.664	0.022	33.940
1046	11.892	0.218	12.110	241.850	7.586	249.436	0.025	33.615
1047	11.892	0.212	12.104	241.850	7.365	249.215	0.020	33.328
1048	11.892	0.206	12.098	241.850	7.144	248.994	0.023	32.879
1049	11.892	0.199	12.091	241.850	6.922	248.772	0.012	32.456
1050	11.892	0.193	12.085	241.850	6.704	248.554	0.021	31.919
1051	11.892	0.187	12.079	241.850	6.491	248.341	0.020	31.378
1052	11.892	0.181	12.073	241.850	6.281	248.131	0.019	30.949
1053	11.892	0.175	12.067	241.850	6.075	247.925	0.010	30.423
1054	11.892	0.169	12.061	241.850	5.874	247.724	0.018	30.122
1055	11.892	0.163	12.055	241.850	5.675	247.525	0.017	29.830
1056	11.892	0.158	12.050	241.850	5.478	247.328	0.009	29.673
1057	11.892	0.152	12.044	241.850	5.281	247.131	0.013	29.269
1058	11.892	0.146	12.038	241.850	5.087	246.937	0.015	28.827
1059	11.892	0.141	12.033	241.850	4.899	246.749	0.015	28.622
1060	11.892	0.136	12.028	241.850	4.717	246.567	0.014	28.289
1061	11.892	0.130	12.022	241.850	4.532	246.382	0.014	28.069
1062	11.892	0.125	12.017	241.850	4.352	246.202	0.009	27.760
1063	11.892	0.120	12.012	241.850	4.171	246.021	0.013	28.468
1064	11.892	0.115	12.007	241.850	3.987	245.837	0.013	29.941
1065	11.892	0.109	12.001	241.850	3.792	245.642	0.012	27.648
1066	11.892	0.104	11.996	241.850	3.613	245.463	0.010	24.607
1067	11.892	0.099	11.991	241.850	3.456	245.306	0.010	22.998
1068	11.892	0.095	11.987	241.850	3.308	245.158	0.008	21.726
1069	11.892	0.091	11.983	241.850	3.168	245.018	0.008	19.682
1070	11.892	0.088	11.980	241.850	3.048	244.898	0.008	19.491
1071	11.892	0.084	11.976	241.850	2.926	244.776	0.006	21.406
1072	11.892	0.080	11.972	241.850	2.788	244.638	0.009	22.972
1073	11.892	0.076	11.968	241.850	2.640	244.490	0.006	21.523
1074	11.892	0.072	11.964	241.850	2.505	244.355	0.008	20.854
1075	11.892	0.068	11.960	241.850	2.370	244.220	0.005	20.534
1076	11.892	0.065	11.957	241.850	2.242	244.092	0.005	20.462
1077	11.892	0.061	11.953	241.850	2.111	243.961	0.007	20.282
1078	11.892	0.057	11.949	241.850	1.982	243.832	0.007	19.813
1079	11.892	0.053	11.945	241.850	1.857	243.707	0.007	19.074
1080	11.892	0.050	11.942	241.850	1.736	243.586	0.006	18.182
1081	11.892	0.047	11.939	241.850	1.623	243.473	0.005	17.466
1082	11.892	0.044	11.936	241.850	1.516	243.366	0.005	17.172
1083	11.892	0.041	11.933	241.850	1.409	243.259	0.006	17.013
1084	11.892	0.037	11.929	241.850	1.302	243.152	0.006	16.694
1085	11.892	0.035	11.927	241.850	1.200	243.050	0.003	16.210
1086	11.892	0.032	11.924	241.850	1.098	242.948	0.004	15.892
1087	11.892	0.029	11.921	241.850	1.004	242.854	0.005	15.360
1088	11.892	0.026	11.918	241.850	0.913	242.763	0.005	14.871
1089	11.892	0.024	11.916	241.850	0.820	242.670	0.005	14.636
1090	11.892	0.021	11.913	241.850	0.729	242.579	0.004	14.357
1091	11.892	0.019	11.911	241.850	0.644	242.494	0.004	14.022
1092	11.892	0.016	11.908	241.850	0.556	242.406	0.003	13.626
1093	11.892	0.014	11.906	241.850	0.472	242.322	0.003	13.117
1094	11.892	0.012	11.904	241.850	0.400	242.250	0.003	12.612
1095	11.892	0.009	11.901	241.850	0.328	242.178	0.004	12.212
1096	11.892	0.007	11.899	241.850	0.260	242.110	0.004	12.091
1097	11.892	0.006	11.898	241.850	0.195	242.045	0.003	11.853
1098	11.892	0.004	11.896	241.850	0.122	241.972	0.003	11.422
1099	11.892	0.002	11.894	241.850	0.061	241.911	0.003	11.148
