Wavelength (nm) 	 Efficiency Div Wav 1 (%) 	 Efficiency Div Wav 2 (%) 	 Efficiency Div Wav total (%) 	 Jsc Div Wav 1 (A m^-2) 	 Jsc Div Wav 2 (A m^-2) 	 Jsc Div Wav total (A m^-2) 	 EQE Curve 1 (%) 	 EQE Curve 2 (%) 	Jsc 1 correction factor: 0.11138078088588836	Jsc 2 correction factor: 0.12112841760658835
400	0.000	7.235	7.235	0.000	236.729	236.729	25.882	10.421
401	0.004	7.234	7.238	0.078	236.695	236.773	28.075	11.198
402	0.008	7.233	7.241	0.167	236.656	236.823	28.702	11.252
403	0.013	7.231	7.244	0.262	236.616	236.878	28.444	11.118
404	0.017	7.230	7.247	0.353	236.577	236.930	27.922	10.934
405	0.022	7.229	7.251	0.444	236.538	236.983	27.980	11.031
406	0.026	7.228	7.254	0.534	236.500	237.033	28.449	11.121
407	0.031	7.227	7.257	0.623	236.462	237.085	29.270	11.520
408	0.035	7.225	7.260	0.713	236.423	237.136	29.922	11.689
409	0.040	7.224	7.264	0.810	236.382	237.192	30.587	11.936
410	0.045	7.223	7.268	0.917	236.337	237.254	30.901	11.984
411	0.050	7.222	7.271	1.009	236.299	237.308	31.634	12.091
412	0.055	7.220	7.275	1.115	236.255	237.370	32.048	12.294
413	0.060	7.219	7.279	1.230	236.206	237.436	32.007	12.286
414	0.066	7.217	7.283	1.340	236.160	237.500	32.555	12.373
415	0.071	7.216	7.287	1.451	236.114	237.566	32.540	12.543
416	0.077	7.214	7.292	1.567	236.066	237.633	33.401	12.745
417	0.083	7.213	7.296	1.690	236.015	237.705	33.853	13.098
418	0.089	7.211	7.300	1.812	235.964	237.776	34.349	12.912
419	0.095	7.210	7.305	1.931	235.916	237.847	34.766	13.023
420	0.101	7.208	7.309	2.057	235.865	237.922	34.381	12.797
421	0.107	7.207	7.314	2.172	235.819	237.991	34.505	12.873
422	0.113	7.205	7.319	2.303	235.766	238.069	35.146	13.136
423	0.120	7.204	7.323	2.436	235.712	238.148	35.410	13.238
424	0.126	7.202	7.328	2.566	235.659	238.225	36.157	13.215
425	0.133	7.200	7.333	2.699	235.607	238.306	35.648	13.106
426	0.139	7.199	7.338	2.834	235.552	238.386	36.716	13.488
427	0.146	7.197	7.343	2.969	235.498	238.467	37.390	13.509
428	0.153	7.195	7.348	3.104	235.445	238.549	37.327	13.529
429	0.159	7.194	7.353	3.240	235.391	238.631	36.953	13.177
430	0.165	7.192	7.358	3.365	235.343	238.708	37.920	13.420
431	0.170	7.191	7.362	3.467	235.303	238.770	39.838	14.214
432	0.175	7.190	7.365	3.565	235.264	238.829	39.411	14.112
433	0.183	7.188	7.371	3.728	235.201	238.929	39.568	14.148
434	0.191	7.186	7.377	3.881	235.142	239.022	39.555	14.036
435	0.198	7.185	7.382	4.022	235.087	239.109	40.958	14.361
436	0.206	7.183	7.388	4.183	235.025	239.209	40.583	14.384
437	0.214	7.181	7.395	4.359	234.958	239.317	40.129	14.156
438	0.223	7.179	7.402	4.538	234.890	239.427	41.610	14.590
439	0.231	7.177	7.408	4.700	234.828	239.528	43.323	14.996
440	0.239	7.175	7.414	4.864	234.766	239.630	42.659	15.210
441	0.248	7.173	7.421	5.050	234.695	239.745	42.684	14.774
442	0.257	7.170	7.428	5.234	234.626	239.860	41.932	15.075
443	0.267	7.168	7.435	5.426	234.551	239.977	44.440	15.671
444	0.277	7.166	7.443	5.635	234.471	240.105	44.982	15.582
445	0.287	7.163	7.451	5.841	234.393	240.234	45.099	15.434
446	0.298	7.161	7.459	6.057	234.313	240.370	45.522	15.747
447	0.308	7.159	7.466	6.254	234.239	240.493	46.117	15.879
448	0.319	7.156	7.475	6.481	234.155	240.636	47.116	16.291
449	0.330	7.153	7.484	6.716	234.066	240.782	46.230	16.568
450	0.342	7.151	7.492	6.948	233.976	240.924	48.360	16.868
451	0.354	7.148	7.502	7.200	233.881	241.080	46.062	16.499
452	0.366	7.145	7.511	7.449	233.784	241.233	44.720	16.358
453	0.378	7.142	7.520	7.682	233.692	241.374	46.914	17.054
454	0.389	7.139	7.528	7.909	233.602	241.511	48.121	17.666
455	0.401	7.136	7.537	8.159	233.503	241.662	49.593	18.334
456	0.414	7.133	7.547	8.416	233.400	241.816	49.802	18.782
457	0.427	7.130	7.557	8.683	233.291	241.974	50.552	18.927
458	0.440	7.126	7.567	8.957	233.179	242.137	50.156	18.843
459	0.454	7.123	7.576	9.223	233.070	242.294	49.848	19.011
460	0.467	7.120	7.586	9.489	232.960	242.449	50.941	19.269
461	0.480	7.116	7.596	9.758	232.850	242.608	52.219	19.750
462	0.494	7.113	7.607	10.045	232.731	242.777	51.178	19.645
463	0.508	7.109	7.617	10.331	232.613	242.943	51.045	19.985
464	0.522	7.105	7.627	10.617	232.490	243.107	50.024	20.150
465	0.535	7.102	7.637	10.890	232.370	243.260	49.587	19.956
466	0.549	7.098	7.647	11.157	232.253	243.410	49.956	20.273
467	0.562	7.094	7.656	11.433	232.130	243.564	50.814	20.655
468	0.575	7.091	7.666	11.702	232.012	243.713	50.463	20.751
469	0.589	7.087	7.676	11.981	231.887	243.868	50.844	21.019
470	0.603	7.083	7.686	12.264	231.760	244.024	52.734	21.719
471	0.617	7.079	7.696	12.547	231.633	244.180	51.704	21.411
472	0.631	7.075	7.706	12.831	231.504	244.335	49.099	20.650
473	0.645	7.071	7.716	13.116	231.373	244.490	52.777	22.252
474	0.659	7.067	7.726	13.410	231.239	244.649	54.510	23.050
475	0.675	7.063	7.737	13.719	231.097	244.816	52.453	22.166
476	0.690	7.058	7.748	14.027	230.956	244.983	52.008	22.259
477	0.704	7.054	7.758	14.324	230.817	245.141	54.208	23.121
478	0.720	7.050	7.769	14.634	230.673	245.308	54.315	22.959
479	0.735	7.045	7.781	14.956	230.526	245.482	54.450	23.152
480	0.751	7.041	7.792	15.275	230.378	245.653	52.704	23.004
481	0.767	7.036	7.803	15.589	230.229	245.818	51.290	22.464
482	0.782	7.032	7.813	15.895	230.083	245.979	53.327	23.210
483	0.797	7.027	7.824	16.216	229.932	246.148	54.635	23.939
484	0.813	7.022	7.836	16.541	229.777	246.318	54.498	23.911
485	0.829	7.018	7.847	16.861	229.624	246.485	54.936	24.354
486	0.845	7.013	7.858	17.184	229.468	246.652	55.336	24.565
487	0.858	7.009	7.867	17.447	229.341	246.788	56.275	25.264
488	0.873	7.004	7.877	17.747	229.194	246.942	59.903	26.276
489	0.890	6.999	7.889	18.097	229.027	247.124	60.993	26.960
490	0.906	6.994	7.901	18.432	228.866	247.298	61.333	27.247
491	0.925	6.989	7.914	18.810	228.683	247.493	61.571	27.751
492	0.943	6.983	7.926	19.174	228.505	247.679	63.288	28.064
493	0.960	6.978	7.939	19.532	228.332	247.864	64.228	28.371
494	0.980	6.972	7.952	19.922	228.144	248.066	63.831	28.488
495	0.998	6.967	7.965	20.301	227.960	248.261	64.226	29.319
496	1.018	6.961	7.979	20.707	227.759	248.466	64.141	29.516
497	1.037	6.955	7.992	21.092	227.566	248.659	62.588	28.621
498	1.056	6.949	8.005	21.478	227.375	248.853	62.805	28.533
499	1.075	6.943	8.018	21.854	227.188	249.042	65.814	30.312
500	1.094	6.937	8.031	22.249	226.991	249.240	67.746	31.042
501	1.114	6.931	8.045	22.657	226.788	249.445	67.079	30.651
502	1.133	6.925	8.058	23.049	226.593	249.642	67.476	31.156
503	1.153	6.919	8.072	23.445	226.394	249.838	70.280	32.698
504	1.174	6.912	8.086	23.877	226.176	250.053	70.368	32.800
505	1.194	6.906	8.100	24.281	225.971	250.252	66.776	30.795
506	1.214	6.900	8.114	24.693	225.764	250.457	67.439	31.733
507	1.236	6.893	8.128	25.129	225.541	250.670	69.091	32.255
508	1.256	6.886	8.143	25.553	225.326	250.878	65.154	30.647
509	1.276	6.880	8.156	25.945	225.124	251.069	62.752	30.423
510	1.295	6.874	8.169	26.344	224.914	251.257	63.499	30.588
511	1.315	6.867	8.182	26.737	224.708	251.445	60.921	29.677
512	1.334	6.861	8.195	27.122	224.503	251.625	65.638	32.281
513	1.355	6.854	8.209	27.548	224.275	251.823	67.496	33.308
514	1.375	6.847	8.222	27.961	224.054	252.015	65.457	32.592
515	1.394	6.841	8.235	28.354	223.840	252.195	69.514	34.579
516	1.415	6.834	8.249	28.785	223.608	252.393	69.791	35.125
517	1.437	6.826	8.263	29.222	223.369	252.591	70.198	35.226
518	1.455	6.820	8.275	29.581	223.173	252.754	75.224	37.230
519	1.476	6.813	8.289	30.022	222.936	252.957	71.775	36.216
520	1.496	6.806	8.303	30.430	222.712	253.142	71.919	36.776
521	1.518	6.799	8.317	30.877	222.463	253.340	72.369	36.838
522	1.541	6.791	8.332	31.334	222.210	253.544	70.448	35.909
523	1.563	6.783	8.346	31.789	221.957	253.746	72.853	37.676
524	1.585	6.776	8.361	32.234	221.706	253.940	71.886	37.659
525	1.608	6.767	8.376	32.707	221.436	254.143	70.308	36.756
526	1.631	6.759	8.390	33.168	221.174	254.343	71.825	38.079
527	1.653	6.751	8.405	33.626	220.910	254.536	73.579	38.884
528	1.674	6.744	8.418	34.037	220.674	254.711	74.665	39.712
529	1.697	6.736	8.433	34.515	220.398	254.913	73.905	39.380
530	1.721	6.727	8.448	35.010	220.111	255.121	74.095	39.702
531	1.745	6.718	8.463	35.490	219.831	255.321	73.692	39.486
532	1.770	6.709	8.479	35.993	219.538	255.531	73.062	39.997
533	1.794	6.700	8.494	36.485	219.245	255.730	73.909	40.401
534	1.816	6.692	8.508	36.931	218.980	255.910	73.986	40.644
535	1.839	6.684	8.523	37.409	218.694	256.103	75.755	41.847
536	1.864	6.674	8.538	37.908	218.395	256.303	73.891	40.862
537	1.889	6.665	8.554	38.417	218.088	256.506	75.907	41.868
538	1.913	6.656	8.569	38.901	217.799	256.699	77.876	43.223
539	1.939	6.647	8.585	39.424	217.482	256.907	77.185	43.281
540	1.964	6.637	8.601	39.932	217.172	257.105	78.258	43.895
541	1.988	6.628	8.616	40.429	216.870	257.299	78.891	44.748
542	2.012	6.619	8.630	40.912	216.572	257.484	81.975	45.846
543	2.039	6.609	8.647	41.459	216.238	257.698	83.336	47.120
544	2.066	6.598	8.664	42.008	215.901	257.909	82.318	47.268
545	2.093	6.587	8.681	42.572	215.549	258.121	80.901	46.087
546	2.120	6.577	8.697	43.114	215.212	258.327	80.509	46.843
547	2.146	6.567	8.713	43.648	214.876	258.524	80.616	46.944
548	2.173	6.556	8.729	44.190	214.532	258.722	82.190	47.520
549	2.199	6.546	8.745	44.728	214.194	258.922	83.384	48.774
550	2.227	6.535	8.762	45.295	213.833	259.128	84.261	49.198
551	2.255	6.524	8.779	45.861	213.473	259.334	85.188	50.096
552	2.283	6.513	8.796	46.435	213.106	259.541	84.940	50.089
553	2.312	6.501	8.813	47.021	212.731	259.751	87.058	51.195
554	2.341	6.490	8.831	47.604	212.357	259.962	83.263	49.637
555	2.369	6.479	8.847	48.176	211.987	260.162	83.104	49.533
556	2.397	6.467	8.864	48.751	211.614	260.365	82.657	49.416
557	2.425	6.456	8.881	49.317	211.246	260.563	83.355	49.701
558	2.452	6.445	8.897	49.872	210.886	260.758	86.386	51.483
559	2.481	6.433	8.915	50.461	210.504	260.965	84.672	51.627
560	2.508	6.422	8.930	51.009	210.141	261.150	86.949	52.230
561	2.536	6.411	8.947	51.582	209.767	261.348	87.921	52.569
562	2.567	6.398	8.965	52.197	209.366	261.563	84.678	51.352
563	2.594	6.387	8.981	52.762	208.994	261.756	84.953	51.817
564	2.623	6.375	8.998	53.350	208.604	261.954	87.884	53.472
565	2.653	6.363	9.016	53.952	208.206	262.158	88.335	53.330
566	2.683	6.351	9.034	54.561	207.807	262.368	92.769	56.298
567	2.713	6.339	9.051	55.165	207.408	262.573	92.029	56.777
568	2.744	6.325	9.070	55.807	206.977	262.784	91.720	56.837
569	2.775	6.312	9.088	56.443	206.548	262.992	90.231	55.911
570	2.805	6.300	9.105	57.053	206.138	263.190	89.401	54.858
571	2.835	6.288	9.123	57.656	205.734	263.390	91.737	56.318
572	2.865	6.275	9.140	58.259	205.332	263.591	90.581	56.193
573	2.896	6.262	9.158	58.887	204.908	263.795	94.074	57.835
574	2.928	6.249	9.177	59.545	204.468	264.014	96.333	60.139
575	2.961	6.235	9.196	60.216	204.013	264.229	94.211	59.116
576	2.992	6.222	9.214	60.858	203.574	264.433	93.328	58.623
577	3.024	6.208	9.232	61.491	203.142	264.633	91.956	57.829
578	3.055	6.195	9.250	62.135	202.702	264.837	86.989	54.964
579	3.084	6.183	9.267	62.722	202.299	265.021	88.295	56.047
580	3.114	6.170	9.284	63.328	201.881	265.209	89.546	56.497
581	3.145	6.157	9.301	63.957	201.449	265.406	92.152	58.229
582	3.177	6.143	9.320	64.606	201.003	265.609	94.380	60.082
583	3.210	6.129	9.339	65.283	200.535	265.818	93.081	59.353
584	3.243	6.114	9.358	65.960	200.065	266.025	93.046	59.545
585	3.276	6.100	9.376	66.634	199.597	266.230	90.780	58.413
586	3.309	6.086	9.395	67.287	199.139	266.426	89.751	57.892
587	3.340	6.072	9.412	67.920	198.694	266.614	90.566	58.390
588	3.372	6.058	9.430	68.574	198.235	266.809	92.491	59.548
589	3.404	6.044	9.448	69.229	197.777	267.006	94.480	60.426
590	3.433	6.032	9.465	69.809	197.374	267.183	95.886	61.886
591	3.463	6.019	9.482	70.434	196.935	267.369	88.429	57.580
592	3.494	6.005	9.499	71.053	196.497	267.550	89.166	58.002
593	3.524	5.992	9.516	71.665	196.065	267.729	90.649	59.017
594	3.555	5.978	9.533	72.297	195.616	267.914	89.631	58.268
595	3.585	5.965	9.550	72.919	195.177	268.095	88.334	57.839
596	3.615	5.952	9.567	73.528	194.743	268.271	86.892	57.025
597	3.646	5.938	9.584	74.146	194.301	268.447	86.529	56.865
598	3.676	5.925	9.601	74.763	193.860	268.623	87.247	57.668
599	3.706	5.911	9.618	75.377	193.419	268.796	88.913	58.581
600	3.737	5.897	9.635	76.004	192.970	268.974	89.274	59.160
601	3.769	5.883	9.652	76.644	192.508	269.153	89.958	59.748
602	3.800	5.869	9.669	77.280	192.049	269.330	89.204	59.256
603	3.831	5.856	9.686	77.903	191.600	269.503	88.286	58.655
604	3.862	5.842	9.703	78.535	191.143	269.678	89.382	59.322
605	3.894	5.827	9.721	79.184	190.674	269.858	89.695	59.501
606	3.926	5.813	9.739	79.837	190.203	270.040	89.844	59.692
607	3.958	5.798	9.756	80.492	189.729	270.221	87.659	58.280
608	3.989	5.784	9.774	81.132	189.267	270.399	85.787	57.002
609	4.020	5.770	9.791	81.760	188.813	270.573	83.869	55.897
610	4.050	5.757	9.807	82.371	188.370	270.741	82.447	54.792
611	4.080	5.744	9.823	82.966	187.939	270.906	83.553	55.726
612	4.109	5.730	9.840	83.571	187.501	271.072	87.052	58.053
613	4.141	5.716	9.857	84.213	187.036	271.248	91.530	60.672
614	4.174	5.701	9.875	84.878	186.556	271.434	94.026	62.377
615	4.206	5.687	9.893	85.542	186.077	271.619	92.003	61.311
616	4.239	5.672	9.911	86.218	185.588	271.806	89.097	59.381
617	4.271	5.658	9.928	86.854	185.127	271.980	85.497	57.209
618	4.300	5.644	9.945	87.455	184.688	272.143	81.956	55.005
619	4.330	5.631	9.961	88.055	184.250	272.305	80.221	53.735
620	4.359	5.618	9.977	88.649	183.817	272.466	79.329	53.354
621	4.388	5.605	9.992	89.237	183.387	272.624	82.702	55.503
622	4.418	5.591	10.009	89.855	182.937	272.792	88.521	59.364
623	4.450	5.577	10.026	90.494	182.471	272.965	92.414	61.908
624	4.482	5.562	10.044	91.155	181.989	273.145	92.870	62.221
625	4.515	5.547	10.062	91.821	181.504	273.325	90.815	60.956
626	4.547	5.533	10.079	92.468	181.031	273.500	86.930	58.598
627	4.577	5.519	10.096	93.089	180.576	273.665	85.274	57.640
628	4.608	5.505	10.113	93.714	180.117	273.830	84.242	57.064
629	4.637	5.491	10.128	94.298	179.687	273.985	84.885	57.393
630	4.667	5.478	10.145	94.912	179.235	274.147	85.167	57.925
631	4.697	5.464	10.161	95.519	178.786	274.305	85.507	58.261
632	4.727	5.450	10.177	96.139	178.326	274.466	86.543	59.062
633	4.757	5.436	10.193	96.744	177.878	274.623	86.778	59.361
634	4.789	5.421	10.210	97.390	177.397	274.788	87.657	59.788
635	4.820	5.407	10.227	98.034	176.920	274.954	88.128	60.186
636	4.853	5.392	10.245	98.692	176.431	275.123	88.175	60.070
637	4.885	5.377	10.262	99.337	175.954	275.291	87.661	60.177
638	4.917	5.362	10.279	99.999	175.459	275.458	86.657	59.884
639	4.950	5.347	10.297	100.659	174.963	275.622	85.596	59.295
640	4.981	5.332	10.314	101.308	174.475	275.782	85.338	58.986
641	5.013	5.318	10.330	101.946	173.995	275.941	85.295	58.956
642	5.044	5.303	10.347	102.584	173.515	276.099	86.695	59.819
643	5.076	5.288	10.364	103.234	173.027	276.261	86.884	60.222
644	5.108	5.273	10.381	103.892	172.532	276.423	87.534	60.791
645	5.141	5.257	10.399	104.555	172.030	276.586	87.064	60.659
646	5.174	5.242	10.416	105.221	171.526	276.748	85.291	59.413
647	5.205	5.227	10.432	105.855	171.047	276.902	84.733	59.040
648	5.236	5.213	10.449	106.480	170.573	277.053	83.618	58.330
649	5.266	5.199	10.465	107.094	170.108	277.202	83.926	58.834
650	5.295	5.185	10.480	107.691	169.652	277.343	85.076	59.666
651	5.325	5.171	10.496	108.302	169.186	277.488	86.916	60.976
652	5.358	5.155	10.513	108.968	168.679	277.647	87.740	61.626
653	5.390	5.140	10.530	109.615	168.184	277.800	86.840	60.881
654	5.422	5.124	10.547	110.278	167.679	277.957	85.893	60.439
655	5.454	5.109	10.564	110.924	167.185	278.109	84.468	59.754
656	5.484	5.095	10.579	111.530	166.719	278.249	83.050	58.819
657	5.510	5.083	10.593	112.054	166.315	278.369	84.508	59.675
658	5.537	5.070	10.607	112.612	165.887	278.498	85.213	60.214
659	5.568	5.055	10.623	113.241	165.403	278.644	85.746	60.644
660	5.600	5.040	10.640	113.880	164.911	278.792	87.394	61.719
661	5.632	5.024	10.656	114.538	164.406	278.945	86.086	60.910
662	5.664	5.009	10.673	115.182	163.911	279.093	84.761	60.088
663	5.695	4.994	10.689	115.813	163.425	279.238	84.358	59.714
664	5.726	4.980	10.705	116.441	162.942	279.383	83.334	59.039
665	5.756	4.965	10.721	117.067	162.460	279.527	82.907	59.054
666	5.788	4.950	10.738	117.706	161.964	279.671	84.204	60.038
667	5.820	4.934	10.754	118.355	161.461	279.816	85.992	61.006
668	5.852	4.919	10.771	119.015	160.952	279.967	86.084	61.450
669	5.885	4.903	10.788	119.676	160.438	280.115	86.260	61.582
670	5.918	4.887	10.805	120.350	159.915	280.265	85.727	61.247
671	5.951	4.871	10.822	121.016	159.398	280.414	83.328	59.610
672	5.982	4.856	10.838	121.659	158.897	280.556	82.672	59.157
673	6.013	4.841	10.854	122.293	158.404	280.697	83.474	59.666
674	6.045	4.826	10.871	122.939	157.902	280.841	82.525	59.238
675	6.076	4.811	10.887	123.574	157.406	280.980	84.240	60.461
676	6.108	4.795	10.903	124.217	156.904	281.121	84.864	61.137
677	6.140	4.779	10.920	124.877	156.386	281.263	83.646	60.327
678	6.172	4.764	10.936	125.523	155.880	281.403	83.256	60.093
679	6.204	4.748	10.952	126.167	155.375	281.542	82.102	59.288
680	6.235	4.733	10.968	126.797	154.880	281.677	81.005	58.695
681	6.266	4.718	10.984	127.425	154.384	281.809	82.203	59.409
682	6.297	4.703	11.000	128.059	153.886	281.945	82.728	59.961
683	6.328	4.687	11.016	128.703	153.379	282.082	82.682	60.052
684	6.360	4.672	11.032	129.336	152.879	282.215	82.576	60.070
685	6.391	4.657	11.048	129.966	152.381	282.347	81.883	59.942
686	6.421	4.642	11.063	130.595	151.879	282.474	80.083	58.592
687	6.451	4.627	11.078	131.198	151.401	282.598	78.654	57.742
688	6.472	4.617	11.089	131.626	151.059	282.686	80.671	58.929
689	6.497	4.604	11.101	132.135	150.656	282.791	79.833	58.590
690	6.522	4.592	11.114	132.644	150.250	282.895	80.411	58.786
691	6.549	4.579	11.127	133.178	149.826	283.004	81.900	60.190
692	6.576	4.565	11.141	133.747	149.371	283.118	81.214	59.930
693	6.605	4.551	11.156	134.327	148.904	283.232	80.539	59.694
694	6.633	4.537	11.170	134.899	148.444	283.343	80.475	59.370
695	6.661	4.523	11.184	135.466	147.990	283.456	80.815	59.808
696	6.690	4.509	11.198	136.046	147.524	283.570	81.148	60.255
697	6.718	4.494	11.212	136.630	147.052	283.682	82.358	60.849
698	6.749	4.479	11.228	137.259	146.547	283.806	82.169	61.380
699	6.780	4.463	11.243	137.877	146.045	283.922	81.227	60.821
700	6.809	4.448	11.257	138.474	145.559	284.033	80.527	60.395
701	6.838	4.434	11.272	139.061	145.080	284.141	80.607	60.458
702	6.866	4.419	11.286	139.645	144.604	284.249	80.703	60.278
703	6.895	4.405	11.300	140.230	144.129	284.359	81.751	60.892
704	6.925	4.390	11.315	140.829	143.645	284.474	83.504	62.144
705	6.956	4.374	11.330	141.457	143.136	284.593	82.638	61.851
706	6.986	4.359	11.345	142.085	142.625	284.710	80.787	60.687
707	7.016	4.344	11.360	142.694	142.127	284.822	80.736	60.670
708	7.046	4.328	11.375	143.305	141.628	284.933	80.784	60.609
709	7.076	4.313	11.389	143.911	141.134	285.045	79.175	59.943
710	7.106	4.298	11.404	144.511	140.640	285.151	79.212	59.751
711	7.136	4.283	11.418	145.117	140.142	285.259	83.503	62.706
712	7.167	4.267	11.434	145.752	139.624	285.375	83.214	62.764
713	7.198	4.251	11.449	146.386	139.104	285.489	81.897	61.894
714	7.228	4.236	11.464	146.999	138.600	285.599	80.709	61.130
715	7.258	4.220	11.479	147.610	138.097	285.707	80.153	60.758
716	7.287	4.206	11.493	148.197	137.614	285.811	82.064	62.115
717	7.317	4.190	11.507	148.804	137.115	285.919	83.496	63.319
718	7.344	4.177	11.520	149.347	136.667	286.014	84.136	63.965
719	7.369	4.164	11.532	149.856	136.245	286.101	84.692	64.469
720	7.391	4.152	11.543	150.317	135.864	286.181	83.459	63.744
721	7.415	4.140	11.555	150.803	135.460	286.263	83.008	63.459
722	7.441	4.126	11.568	151.335	135.018	286.354	82.290	62.843
723	7.471	4.111	11.582	151.938	134.518	286.456	81.882	63.009
724	7.498	4.097	11.595	152.491	134.055	286.547	83.807	64.331
725	7.524	4.084	11.607	153.016	133.617	286.633	85.147	65.751
726	7.550	4.070	11.620	153.541	133.176	286.716	85.440	66.219
727	7.577	4.056	11.633	154.090	132.713	286.803	85.645	66.104
728	7.604	4.042	11.646	154.643	132.248	286.891	84.165	65.227
729	7.630	4.028	11.658	155.166	131.807	286.973	83.507	64.770
730	7.655	4.015	11.670	155.688	131.366	287.054	83.871	64.744
731	7.683	4.000	11.683	156.255	130.890	287.145	84.655	65.542
732	7.710	3.986	11.696	156.799	130.434	287.232	86.240	66.789
733	7.739	3.971	11.710	157.394	129.932	287.326	86.723	67.071
734	7.770	3.955	11.725	158.017	129.409	287.426	86.247	67.194
735	7.801	3.938	11.740	158.660	128.865	287.525	85.004	66.060
736	7.832	3.922	11.754	159.282	128.338	287.620	84.186	65.528
737	7.862	3.906	11.769	159.895	127.820	287.714	84.672	65.601
738	7.893	3.890	11.783	160.512	127.300	287.812	84.840	65.773
739	7.924	3.874	11.798	161.142	126.769	287.912	86.469	67.316
740	7.954	3.858	11.812	161.768	126.240	288.008	87.461	67.864
741	7.986	3.841	11.827	162.413	125.695	288.108	86.698	67.293
742	8.018	3.825	11.842	163.054	125.155	288.208	85.954	67.213
743	8.049	3.808	11.857	163.690	124.614	288.304	84.543	66.174
744	8.080	3.792	11.872	164.327	124.072	288.399	84.483	65.674
745	8.112	3.775	11.887	164.971	123.528	288.499	85.140	66.721
746	8.144	3.758	11.902	165.620	122.974	288.594	85.526	66.988
747	8.176	3.741	11.917	166.274	122.418	288.692	86.311	67.401
748	8.208	3.724	11.932	166.934	121.858	288.792	86.683	67.827
749	8.241	3.707	11.948	167.592	121.298	288.890	86.329	67.510
750	8.273	3.690	11.963	168.248	120.740	288.988	85.427	66.999
751	8.305	3.673	11.978	168.899	120.185	289.084	84.889	66.520
752	8.336	3.656	11.993	169.540	119.639	289.179	85.157	66.637
753	8.368	3.639	12.008	170.191	119.085	289.276	86.122	67.243
754	8.401	3.622	12.023	170.844	118.531	289.375	86.462	67.541
755	8.433	3.605	12.039	171.511	117.965	289.475	86.117	67.430
756	8.466	3.588	12.054	172.171	117.403	289.574	86.621	67.431
757	8.498	3.571	12.069	172.830	116.845	289.675	85.068	66.188
758	8.530	3.554	12.084	173.478	116.297	289.774	84.131	65.491
759	8.562	3.538	12.099	174.119	115.754	289.873	84.241	65.716
760	8.592	3.521	12.114	174.745	115.223	289.969	84.247	65.545
761	8.599	3.518	12.117	174.888	115.103	289.991	84.246	65.562
762	8.603	3.516	12.119	174.970	115.033	290.004	85.105	66.096
763	8.622	3.506	12.128	175.340	114.721	290.061	84.996	65.926
764	8.632	3.501	12.132	175.545	114.548	290.093	84.152	65.571
765	8.646	3.493	12.139	175.833	114.303	290.136	83.785	65.128
766	8.664	3.484	12.148	176.199	113.994	290.193	82.949	64.724
767	8.685	3.473	12.158	176.628	113.631	290.258	83.364	64.669
768	8.710	3.459	12.170	177.142	113.197	290.339	83.771	64.741
769	8.739	3.444	12.184	177.731	112.702	290.433	83.724	64.742
770	8.769	3.429	12.198	178.327	112.200	290.527	83.744	64.882
771	8.799	3.413	12.212	178.941	111.683	290.624	83.829	64.524
772	8.829	3.397	12.227	179.563	111.163	290.726	83.426	64.446
773	8.860	3.381	12.241	180.187	110.639	290.826	82.681	63.996
774	8.891	3.365	12.256	180.808	110.117	290.924	82.264	63.459
775	8.921	3.349	12.270	181.426	109.598	291.024	82.525	63.388
776	8.951	3.334	12.285	182.046	109.080	291.126	82.661	63.359
777	8.982	3.318	12.300	182.669	108.561	291.230	83.229	63.376
778	9.013	3.302	12.315	183.296	108.042	291.338	83.113	63.006
779	9.044	3.286	12.330	183.923	107.524	291.448	82.545	62.519
780	9.074	3.270	12.345	184.547	107.011	291.558	81.714	61.780
781	9.104	3.255	12.359	185.159	106.507	291.666	81.151	61.390
782	9.134	3.240	12.374	185.769	106.006	291.774	81.270	61.413
783	9.164	3.224	12.389	186.379	105.504	291.883	81.476	61.691
784	9.195	3.209	12.403	186.992	104.999	291.991	82.050	61.968
785	9.225	3.194	12.418	187.604	104.496	292.100	81.985	62.053
786	9.255	3.178	12.433	188.217	103.992	292.209	81.771	61.592
787	9.285	3.163	12.448	188.835	103.486	292.321	81.297	61.180
788	9.315	3.148	12.462	189.439	102.992	292.431	80.615	60.540
789	9.344	3.133	12.477	190.032	102.507	292.540	80.279	60.202
790	9.373	3.118	12.491	190.624	102.025	292.649	80.464	60.270
791	9.401	3.104	12.505	191.195	101.560	292.755	80.647	60.360
792	9.430	3.089	12.519	191.780	101.084	292.864	80.776	60.454
793	9.459	3.075	12.533	192.360	100.612	292.972	80.384	60.202
794	9.487	3.061	12.547	192.933	100.145	293.078	79.595	59.522
795	9.515	3.046	12.561	193.506	99.679	293.185	79.139	59.135
796	9.543	3.032	12.575	194.077	99.215	293.292	78.389	58.761
797	9.570	3.018	12.589	194.631	98.763	293.394	77.953	58.606
798	9.598	3.004	12.602	195.195	98.303	293.498	78.701	58.845
799	9.626	2.990	12.616	195.771	97.835	293.606	78.864	59.255
800	9.654	2.976	12.630	196.336	97.373	293.709	79.042	59.255
801	9.682	2.962	12.644	196.898	96.915	293.813	78.567	58.961
802	9.709	2.948	12.657	197.464	96.453	293.917	77.916	58.505
803	9.737	2.934	12.671	198.025	95.995	294.020	77.253	58.162
804	9.764	2.920	12.684	198.573	95.547	294.120	77.398	58.078
805	9.791	2.906	12.698	199.129	95.093	294.222	77.858	58.558
806	9.818	2.892	12.711	199.677	94.645	294.322	78.171	58.954
807	9.846	2.878	12.725	200.248	94.176	294.424	77.684	58.761
808	9.874	2.864	12.738	200.812	93.713	294.525	77.544	58.669
809	9.902	2.850	12.752	201.373	93.251	294.624	76.950	58.326
810	9.929	2.836	12.765	201.918	92.801	294.719	76.223	57.864
811	9.955	2.822	12.778	202.458	92.354	294.812	76.269	57.935
812	9.982	2.809	12.790	202.998	91.907	294.906	76.242	58.182
813	10.008	2.795	12.803	203.526	91.469	294.995	76.849	58.651
814	10.033	2.782	12.815	204.050	91.035	295.085	77.265	59.041
815	10.057	2.770	12.827	204.523	90.643	295.166	77.019	58.850
816	10.080	2.758	12.838	204.991	90.254	295.245	76.817	58.769
817	10.101	2.747	12.848	205.425	89.892	295.317	75.570	57.989
818	10.122	2.736	12.859	205.863	89.526	295.389	75.115	57.732
819	10.143	2.725	12.868	206.284	89.174	295.457	75.597	58.176
820	10.166	2.713	12.879	206.749	88.783	295.533	75.752	58.274
821	10.188	2.702	12.890	207.195	88.410	295.605	75.603	58.271
822	10.213	2.689	12.902	207.710	87.979	295.689	75.489	58.299
823	10.237	2.676	12.914	208.201	87.567	295.768	74.691	58.033
824	10.254	2.667	12.922	208.546	87.275	295.821	74.509	57.862
825	10.278	2.655	12.933	209.024	86.872	295.896	74.745	58.201
826	10.302	2.642	12.944	209.522	86.451	295.972	74.332	58.147
827	10.326	2.630	12.955	209.998	86.045	296.043	74.631	58.351
828	10.351	2.617	12.967	210.504	85.615	296.119	75.350	59.117
829	10.372	2.605	12.977	210.946	85.238	296.184	75.495	59.468
830	10.396	2.592	12.989	211.431	84.824	296.255	75.463	59.328
831	10.420	2.580	13.000	211.909	84.416	296.324	74.663	59.255
832	10.443	2.567	13.011	212.386	84.004	296.390	73.652	58.519
833	10.466	2.555	13.021	212.843	83.609	296.452	73.508	58.566
834	10.490	2.542	13.032	213.331	83.186	296.517	73.842	59.032
835	10.513	2.530	13.043	213.810	82.769	296.579	73.651	59.118
836	10.539	2.516	13.054	214.323	82.321	296.645	73.122	59.463
837	10.563	2.502	13.065	214.818	81.884	296.702	72.450	59.211
838	10.588	2.489	13.076	215.327	81.431	296.758	71.508	58.985
839	10.612	2.475	13.087	215.825	80.984	296.809	71.230	59.111
840	10.637	2.461	13.098	216.323	80.535	296.857	70.628	59.017
841	10.661	2.447	13.109	216.824	80.079	296.903	70.613	59.161
842	10.686	2.433	13.119	217.323	79.624	296.947	71.125	59.590
843	10.710	2.420	13.130	217.820	79.171	296.990	71.123	59.919
844	10.735	2.405	13.141	218.322	78.710	297.032	71.419	60.379
845	10.759	2.392	13.151	218.816	78.255	297.071	71.151	60.247
846	10.784	2.377	13.162	219.325	77.786	297.112	70.574	60.168
847	10.809	2.363	13.172	219.832	77.316	297.149	70.166	59.972
848	10.833	2.349	13.182	220.322	76.861	297.183	69.513	59.972
849	10.857	2.335	13.192	220.809	76.404	297.213	69.215	60.074
850	10.881	2.321	13.202	221.291	75.949	297.240	69.042	60.481
851	10.903	2.308	13.211	221.728	75.532	297.260	69.034	60.873
852	10.926	2.294	13.220	222.206	75.074	297.280	68.417	60.754
853	10.949	2.280	13.230	222.677	74.620	297.297	67.795	60.360
854	10.972	2.267	13.239	223.141	74.169	297.311	67.303	60.382
855	10.992	2.255	13.247	223.549	73.771	297.320	66.766	60.414
856	11.013	2.241	13.255	223.983	73.343	297.327	66.453	60.969
857	11.036	2.227	13.264	224.445	72.883	297.327	66.524	61.242
858	11.059	2.213	13.272	224.916	72.411	297.326	66.344	61.645
859	11.083	2.198	13.281	225.387	71.935	297.321	65.393	61.469
860	11.105	2.184	13.289	225.851	71.460	297.311	64.439	61.245
861	11.128	2.169	13.297	226.308	70.987	297.295	63.772	61.480
862	11.150	2.155	13.305	226.760	70.514	297.274	63.170	61.513
863	11.172	2.140	13.313	227.212	70.035	297.248	62.335	61.458
864	11.194	2.126	13.320	227.661	69.554	297.216	61.958	61.724
865	11.216	2.111	13.327	228.099	69.081	297.180	60.937	61.483
866	11.237	2.097	13.334	228.522	68.616	297.138	59.952	61.289
867	11.255	2.084	13.339	228.890	68.206	297.096	59.322	61.699
868	11.274	2.071	13.345	229.283	67.762	297.045	58.489	61.652
869	11.294	2.057	13.351	229.689	67.295	296.985	57.335	61.526
870	11.314	2.043	13.356	230.085	66.834	296.919	56.784	62.187
871	11.333	2.028	13.361	230.484	66.359	296.843	55.650	62.126
872	11.352	2.014	13.366	230.870	65.890	296.760	54.870	61.875
873	11.371	1.999	13.370	231.257	65.417	296.673	54.131	62.280
874	11.390	1.985	13.374	231.634	64.944	296.578	53.278	62.252
875	11.408	1.971	13.378	232.001	64.479	296.480	52.099	62.140
876	11.425	1.957	13.382	232.354	64.021	296.375	50.991	62.080
877	11.443	1.942	13.385	232.709	63.550	296.259	50.042	61.958
878	11.460	1.928	13.388	233.060	63.078	296.137	49.159	62.108
879	11.477	1.913	13.390	233.403	62.605	296.008	47.941	62.064
880	11.493	1.899	13.392	233.733	62.141	295.874	46.993	61.944
881	11.509	1.885	13.394	234.057	61.676	295.733	46.021	62.106
882	11.524	1.871	13.395	234.365	61.224	295.590	44.863	62.071
883	11.539	1.857	13.396	234.674	60.760	295.434	43.731	62.069
884	11.554	1.843	13.397	234.973	60.298	295.271	42.823	62.156
885	11.568	1.829	13.397	235.269	59.831	295.100	41.741	61.994
886	11.583	1.814	13.397	235.560	59.360	294.921	40.841	62.145
887	11.596	1.800	13.397	235.835	58.906	294.741	39.732	62.224
888	11.609	1.786	13.396	236.104	58.449	294.553	38.768	62.305
889	11.623	1.772	13.395	236.369	57.985	294.354	37.733	62.397
890	11.635	1.758	13.393	236.631	57.514	294.145	36.754	62.512
891	11.648	1.743	13.391	236.884	57.047	293.930	35.699	62.301
892	11.660	1.729	13.389	237.130	56.579	293.709	34.644	62.527
893	11.671	1.715	13.386	237.365	56.118	293.482	34.001	62.963
894	11.682	1.701	13.384	237.586	55.671	293.257	33.260	63.393
895	11.693	1.688	13.381	237.798	55.231	293.029	32.127	63.518
896	11.702	1.675	13.377	237.994	54.809	292.803	31.247	63.656
897	11.711	1.663	13.374	238.173	54.412	292.585	30.342	63.807
898	11.719	1.652	13.371	238.326	54.063	292.389	29.301	63.729
899	11.727	1.641	13.367	238.484	53.688	292.172	28.394	63.598
900	11.732	1.632	13.364	238.602	53.401	292.003	27.370	63.091
901	11.740	1.620	13.360	238.756	53.015	291.771	26.421	63.128
902	11.746	1.611	13.356	238.876	52.703	291.579	25.678	63.346
903	11.752	1.600	13.352	239.006	52.354	291.361	24.840	63.351
904	11.759	1.589	13.348	239.137	51.993	291.130	24.000	63.366
905	11.766	1.576	13.342	239.290	51.552	290.843	23.041	63.074
906	11.773	1.563	13.336	239.433	51.127	290.560	22.157	62.738
907	11.780	1.550	13.330	239.563	50.725	290.288	21.559	63.144
908	11.785	1.540	13.325	239.668	50.391	290.059	20.881	63.235
909	11.790	1.530	13.319	239.772	50.048	289.819	20.122	63.484
910	11.795	1.518	13.313	239.880	49.676	289.556	19.584	64.020
911	11.800	1.508	13.308	239.973	49.343	289.316	18.882	64.187
912	11.805	1.497	13.302	240.070	48.986	289.056	18.182	64.093
913	11.809	1.486	13.295	240.166	48.617	288.783	17.517	63.941
914	11.813	1.476	13.289	240.251	48.282	288.532	16.755	63.396
915	11.817	1.465	13.283	240.331	47.950	288.281	16.059	63.379
916	11.821	1.454	13.276	240.414	47.590	288.004	15.540	63.611
917	11.825	1.445	13.270	240.483	47.282	287.766	15.015	63.915
918	11.829	1.433	13.262	240.568	46.891	287.459	14.464	63.847
919	11.832	1.423	13.256	240.635	46.573	287.208	13.842	63.555
920	11.836	1.411	13.247	240.714	46.178	286.892	13.216	63.401
921	11.840	1.399	13.239	240.790	45.780	286.570	12.731	63.393
922	11.844	1.386	13.230	240.867	45.364	286.230	12.176	62.964
923	11.847	1.375	13.222	240.932	44.992	285.924	11.694	63.040
924	11.850	1.363	13.213	241.000	44.596	285.596	11.268	63.502
925	11.853	1.351	13.204	241.064	44.208	285.272	10.816	63.357
926	11.856	1.339	13.196	241.124	43.827	284.950	10.368	63.297
927	11.859	1.328	13.187	241.181	43.450	284.631	9.900	63.011
928	11.862	1.315	13.177	241.242	43.030	284.272	9.468	62.792
929	11.864	1.305	13.170	241.285	42.715	284.000	9.031	62.696
930	11.866	1.296	13.163	241.324	42.420	283.745	8.631	62.376
931	11.868	1.289	13.157	241.353	42.190	283.543	8.292	62.572
932	11.869	1.283	13.152	241.380	41.971	283.351	7.928	62.415
933	11.870	1.278	13.148	241.399	41.810	283.209	7.551	62.183
934	11.871	1.274	13.144	241.413	41.677	283.090	7.206	62.130
935	11.871	1.271	13.142	241.421	41.599	283.020	6.852	61.823
936	11.872	1.267	13.139	241.435	41.466	282.900	6.544	61.486
937	11.872	1.265	13.137	241.443	41.380	282.823	6.236	61.481
938	11.872	1.262	13.134	241.451	41.293	282.744	5.932	61.320
939	11.873	1.259	13.132	241.461	41.186	282.647	5.685	61.597
940	11.874	1.252	13.126	241.479	40.974	282.453	5.456	61.852
941	11.875	1.245	13.119	241.499	40.722	282.221	5.178	61.645
942	11.876	1.238	13.114	241.515	40.524	282.038	4.922	61.501
943	11.876	1.232	13.108	241.530	40.308	281.838	4.670	61.199
944	11.877	1.227	13.104	241.540	40.160	281.700	4.443	60.851
945	11.877	1.223	13.100	241.550	40.009	281.559	4.236	60.924
946	11.878	1.217	13.095	241.563	39.814	281.376	4.023	60.811
947	11.878	1.214	13.092	241.569	39.711	281.280	3.835	60.763
948	11.879	1.208	13.086	241.580	39.515	281.095	3.648	60.704
949	11.879	1.203	13.082	241.588	39.369	280.957	3.449	60.392
950	11.880	1.195	13.075	241.602	39.109	280.710	3.278	60.273
951	11.880	1.193	13.073	241.605	39.031	280.636	3.109	60.211
952	11.881	1.185	13.066	241.617	38.776	280.393	2.943	60.052
953	11.881	1.181	13.062	241.624	38.634	280.258	2.808	60.256
954	11.881	1.175	13.056	241.632	38.452	280.084	2.674	60.514
955	11.882	1.168	13.050	241.641	38.227	279.868	2.537	60.500
956	11.882	1.163	13.045	241.647	38.045	279.693	2.420	60.525
957	11.882	1.157	13.040	241.654	37.870	279.524	2.285	60.169
958	11.883	1.153	13.036	241.660	37.725	279.385	2.163	59.993
959	11.883	1.145	13.028	241.667	37.481	279.148	2.050	59.846
960	11.883	1.139	13.023	241.674	37.283	278.957	1.937	59.654
961	11.884	1.133	13.016	241.681	37.062	278.742	1.839	59.644
962	11.884	1.125	13.009	241.687	36.818	278.506	1.743	59.666
963	11.884	1.118	13.002	241.694	36.584	278.278	1.654	59.666
964	11.885	1.110	12.995	241.701	36.317	278.017	1.570	59.731
965	11.885	1.102	12.987	241.706	36.073	277.780	1.483	59.512
966	11.885	1.094	12.980	241.712	35.807	277.519	1.400	59.458
967	11.886	1.086	12.972	241.717	35.540	277.258	1.334	59.570
968	11.886	1.078	12.964	241.723	35.274	276.997	1.260	59.444
969	11.886	1.068	12.954	241.730	34.930	276.660	1.197	59.770
970	11.886	1.056	12.943	241.736	34.565	276.302	1.136	59.697
971	11.887	1.046	12.933	241.742	34.227	275.969	1.074	59.352
972	11.887	1.034	12.922	241.749	33.849	275.598	1.011	58.947
973	11.887	1.023	12.911	241.754	33.488	275.243	0.955	58.633
974	11.888	1.014	12.901	241.759	33.170	274.928	0.904	58.639
975	11.888	1.004	12.892	241.763	32.867	274.630	0.853	58.510
976	11.888	0.995	12.883	241.768	32.558	274.326	0.807	58.505
977	11.888	0.986	12.874	241.771	32.258	274.029	0.767	58.627
978	11.888	0.976	12.864	241.775	31.921	273.696	0.727	58.658
979	11.889	0.966	12.854	241.779	31.596	273.375	0.684	58.348
980	11.889	0.955	12.844	241.782	31.262	273.044	0.650	58.517
981	11.889	0.946	12.835	241.785	30.943	272.729	0.615	58.485
982	11.889	0.934	12.823	241.789	30.568	272.357	0.581	58.195
983	11.889	0.923	12.812	241.792	30.205	271.997	0.551	58.241
984	11.889	0.912	12.802	241.795	29.853	271.649	0.522	58.014
985	11.889	0.901	12.790	241.799	29.467	271.266	0.493	57.844
986	11.890	0.890	12.779	241.802	29.107	270.909	0.465	57.523
987	11.890	0.878	12.767	241.805	28.716	270.521	0.440	57.256
988	11.890	0.866	12.756	241.808	28.332	270.140	0.415	56.889
989	11.890	0.854	12.744	241.810	27.953	269.763	0.393	56.717
990	11.890	0.843	12.733	241.812	27.568	269.380	0.372	56.586
991	11.890	0.831	12.721	241.814	27.191	269.005	0.348	56.440
992	11.890	0.819	12.710	241.817	26.805	268.621	0.333	56.451
993	11.890	0.807	12.698	241.819	26.418	268.237	0.316	56.454
994	11.891	0.796	12.686	241.821	26.039	267.860	0.299	56.324
995	11.891	0.784	12.675	241.823	25.651	267.475	0.284	56.256
996	11.891	0.772	12.663	241.825	25.265	267.090	0.270	56.249
997	11.891	0.760	12.651	241.828	24.880	266.708	0.255	55.971
998	11.891	0.749	12.640	241.829	24.501	266.329	0.241	55.569
999	11.891	0.737	12.628	241.830	24.124	265.954	0.228	55.360
1000	11.891	0.726	12.617	241.831	23.748	265.580	0.216	54.958
1001	11.891	0.714	12.606	241.832	23.377	265.209	0.204	54.522
1002	11.891	0.703	12.594	241.833	23.003	264.837	0.194	54.138
1003	11.891	0.692	12.583	241.834	22.640	264.475	0.184	53.854
1004	11.891	0.681	12.572	241.836	22.276	264.111	0.174	53.716
1005	11.891	0.670	12.561	241.837	21.917	263.754	0.166	53.671
1006	11.891	0.659	12.551	241.838	21.579	263.417	0.157	53.536
1007	11.891	0.649	12.540	241.839	21.227	263.065	0.150	53.541
1008	11.892	0.638	12.529	241.840	20.866	262.706	0.142	53.232
1009	11.892	0.627	12.518	241.841	20.507	262.348	0.135	53.148
1010	11.892	0.616	12.508	241.842	20.152	261.994	0.129	52.998
1011	11.892	0.605	12.497	241.843	19.798	261.642	0.122	52.821
1012	11.892	0.594	12.486	241.844	19.444	261.288	0.116	52.444
1013	11.892	0.583	12.475	241.846	19.092	260.938	0.111	52.174
1014	11.892	0.573	12.465	241.847	18.743	260.590	0.105	51.794
1015	11.892	0.562	12.454	241.848	18.396	260.244	0.100	51.308
1016	11.892	0.552	12.444	241.849	18.057	259.905	0.095	51.007
1017	11.892	0.541	12.433	241.850	17.717	259.567	0.090	50.546
1018	11.892	0.531	12.423	241.850	17.386	259.236	0.086	50.094
1019	11.892	0.521	12.413	241.850	17.050	258.900	0.082	49.558
1020	11.892	0.511	12.403	241.850	16.730	258.580	0.078	49.296
1021	11.892	0.501	12.393	241.850	16.407	258.257	0.074	49.001
1022	11.892	0.492	12.384	241.850	16.083	257.933	0.071	48.624
1023	11.892	0.482	12.374	241.850	15.768	257.618	0.067	48.207
1024	11.892	0.472	12.364	241.850	15.454	257.304	0.064	47.917
1025	11.892	0.463	12.355	241.850	15.141	256.991	0.061	47.483
1026	11.892	0.453	12.345	241.850	14.829	256.679	0.059	46.991
1027	11.892	0.444	12.336	241.850	14.520	256.370	0.056	46.594
1028	11.892	0.434	12.326	241.850	14.214	256.064	0.053	46.082
1029	11.892	0.425	12.317	241.850	13.912	255.762	0.051	45.667
1030	11.892	0.416	12.308	241.850	13.615	255.465	0.048	45.483
1031	11.892	0.407	12.299	241.850	13.317	255.167	0.047	45.366
1032	11.892	0.398	12.290	241.850	13.021	254.871	0.045	45.413
1033	11.892	0.389	12.281	241.850	12.725	254.575	0.043	45.318
1034	11.892	0.380	12.272	241.850	12.433	254.283	0.041	45.217
1035	11.892	0.371	12.263	241.850	12.139	253.989	0.039	44.745
1036	11.892	0.362	12.254	241.850	11.849	253.699	0.037	43.961
1037	11.892	0.353	12.245	241.850	11.563	253.413	0.036	43.242
1038	11.892	0.345	12.237	241.850	11.284	253.134	0.034	42.674
1039	11.892	0.336	12.229	241.850	11.011	252.861	0.033	42.096
1040	11.892	0.328	12.220	241.850	10.738	252.588	0.031	41.928
1041	11.892	0.320	12.212	241.850	10.468	252.318	0.030	41.818
1042	11.892	0.312	12.204	241.850	10.198	252.048	0.029	41.582
1043	11.892	0.303	12.195	241.850	9.929	251.779	0.028	41.299
1044	11.892	0.295	12.187	241.850	9.665	251.515	0.027	40.924
1045	11.892	0.287	12.179	241.850	9.402	251.252	0.022	40.872
1046	11.892	0.279	12.171	241.850	9.140	250.990	0.025	40.686
1047	11.892	0.272	12.164	241.850	8.886	250.736	0.020	40.382
1048	11.892	0.264	12.156	241.850	8.630	250.480	0.023	39.961
1049	11.892	0.256	12.148	241.850	8.375	250.225	0.012	39.562
1050	11.892	0.248	12.140	241.850	8.123	249.973	0.021	39.008
1051	11.892	0.241	12.133	241.850	7.876	249.726	0.020	38.419
1052	11.892	0.233	12.125	241.850	7.631	249.481	0.019	37.934
1053	11.892	0.226	12.118	241.850	7.391	249.241	0.010	37.435
1054	11.892	0.219	12.111	241.850	7.155	249.005	0.018	37.152
1055	11.892	0.212	12.104	241.850	6.921	248.771	0.017	36.904
1056	11.892	0.204	12.096	241.850	6.689	248.539	0.009	36.892
1057	11.892	0.197	12.089	241.850	6.456	248.306	0.013	36.575
1058	11.892	0.190	12.082	241.850	6.226	248.076	0.015	36.124
1059	11.892	0.183	12.075	241.850	6.001	247.851	0.015	35.855
1060	11.892	0.177	12.069	241.850	5.784	247.634	0.014	35.575
1061	11.892	0.170	12.062	241.850	5.562	247.412	0.014	35.310
1062	11.892	0.163	12.055	241.850	5.348	247.198	0.009	34.995
1063	11.892	0.157	12.049	241.850	5.131	246.981	0.013	35.476
1064	11.892	0.150	12.042	241.850	4.914	246.764	0.013	36.530
1065	11.892	0.143	12.035	241.850	4.688	246.538	0.012	34.023
1066	11.892	0.137	12.029	241.850	4.477	246.327	0.010	30.987
1067	11.892	0.131	12.023	241.850	4.289	246.139	0.010	28.859
1068	11.892	0.126	12.018	241.850	4.112	245.962	0.008	27.586
1069	11.892	0.121	12.013	241.850	3.944	245.794	0.008	25.572
1070	11.892	0.116	12.008	241.850	3.796	245.646	0.008	25.589
1071	11.892	0.111	12.003	241.850	3.644	245.494	0.006	28.086
1072	11.892	0.106	11.998	241.850	3.473	245.323	0.009	29.753
1073	11.892	0.101	11.993	241.850	3.291	245.141	0.006	27.934
1074	11.892	0.095	11.987	241.850	3.124	244.974	0.008	26.910
1075	11.892	0.090	11.982	241.850	2.958	244.808	0.005	26.580
1076	11.892	0.086	11.978	241.850	2.802	244.652	0.005	26.624
1077	11.892	0.081	11.973	241.850	2.639	244.489	0.007	26.424
1078	11.892	0.076	11.968	241.850	2.481	244.331	0.007	25.833
1079	11.892	0.071	11.963	241.850	2.326	244.176	0.007	24.903
1080	11.892	0.066	11.959	241.850	2.175	244.025	0.006	23.805
1081	11.892	0.062	11.954	241.850	2.034	243.884	0.005	22.957
1082	11.892	0.058	11.950	241.850	1.901	243.751	0.005	22.514
1083	11.892	0.054	11.946	241.850	1.767	243.617	0.006	22.368
1084	11.892	0.050	11.942	241.850	1.633	243.483	0.006	21.990
1085	11.892	0.046	11.938	241.850	1.506	243.356	0.003	21.365
1086	11.892	0.042	11.934	241.850	1.378	243.228	0.004	20.970
1087	11.892	0.039	11.931	241.850	1.262	243.112	0.005	20.362
1088	11.892	0.035	11.927	241.850	1.146	242.996	0.005	19.773
1089	11.892	0.031	11.923	241.850	1.027	242.877	0.005	19.333
1090	11.892	0.028	11.920	241.850	0.915	242.765	0.004	18.923
1091	11.892	0.025	11.917	241.850	0.808	242.658	0.004	18.572
1092	11.892	0.021	11.913	241.850	0.698	242.548	0.003	18.059
1093	11.892	0.018	11.910	241.850	0.592	242.442	0.003	17.383
1094	11.892	0.015	11.907	241.850	0.503	242.353	0.003	16.695
1095	11.892	0.013	11.905	241.850	0.412	242.262	0.004	16.131
1096	11.892	0.010	11.902	241.850	0.327	242.177	0.004	15.940
1097	11.892	0.008	11.900	241.850	0.246	242.096	0.003	15.626
1098	11.892	0.005	11.897	241.850	0.154	242.004	0.003	15.098
1099	11.892	0.002	11.894	241.850	0.076	241.926	0.003	14.689
