Wavelength (nm)	EQE (%)	Current (A)	Dark Current (A) -> 	252.786563333E-15	
400.000000	10.420579	-1.313299E-7
401.000000	11.198372	-2.169618E-7
402.000000	11.251775	-2.997141E-7
403.000000	11.118362	-4.729444E-7
404.000000	10.934242	-6.441957E-7
405.000000	11.031193	-7.866369E-7
406.000000	11.121177	-9.405050E-7
407.000000	11.519904	-9.482501E-7
408.000000	11.689165	-1.157032E-6
409.000000	11.935941	-1.132895E-6
410.000000	11.984069	-1.321307E-6
411.000000	12.091095	-1.588371E-6
412.000000	12.294450	-1.834987E-6
413.000000	12.286093	-2.041734E-6
414.000000	12.373492	-2.096359E-6
415.000000	12.542750	-2.443934E-6
416.000000	12.744745	-2.357320E-6
417.000000	13.097830	-1.602905E-6
418.000000	12.911700	-1.061123E-6
419.000000	13.023302	-9.927978E-7
420.000000	12.797252	-9.009507E-7
421.000000	12.873213	-9.040312E-7
422.000000	13.135732	-9.172016E-7
423.000000	13.238237	-1.008062E-6
424.000000	13.215426	-1.097684E-6
425.000000	13.106169	-1.129463E-6
426.000000	13.487865	-1.204819E-6
427.000000	13.509041	-1.313798E-6
428.000000	13.529083	-1.374840E-6
429.000000	13.176561	-1.254471E-6
430.000000	13.420407	-1.404108E-6
431.000000	14.214150	-1.490996E-6
432.000000	14.112140	-1.500009E-6
433.000000	14.148141	-1.466507E-6
434.000000	14.035753	-1.768234E-6
435.000000	14.361291	-2.119964E-6
436.000000	14.383740	-2.002927E-6
437.000000	14.155611	-1.815208E-6
438.000000	14.590490	-2.168541E-6
439.000000	14.995704	-2.614961E-6
440.000000	15.210292	-2.449819E-6
441.000000	14.773724	-1.842217E-6
442.000000	15.074760	-1.964969E-6
443.000000	15.670911	-2.553156E-6
444.000000	15.581765	-2.607595E-6
445.000000	15.434307	-2.581554E-6
446.000000	15.746757	-2.594854E-6
447.000000	15.878814	-2.408429E-6
448.000000	16.290715	-2.151822E-6
449.000000	16.568474	-2.331356E-6
450.000000	16.867999	-2.573164E-6
451.000000	16.499102	-2.623209E-6
452.000000	16.357672	-3.062715E-6
453.000000	17.053709	-3.449826E-6
454.000000	17.665749	-3.313760E-6
455.000000	18.334039	-2.831855E-6
456.000000	18.781684	-3.284098E-6
457.000000	18.926738	-4.012785E-6
458.000000	18.842812	-4.277487E-6
459.000000	19.010730	-4.649339E-6
460.000000	19.269220	-4.517308E-6
461.000000	19.750209	-3.528524E-6
462.000000	19.645490	-2.768226E-6
463.000000	19.985218	-2.918189E-6
464.000000	20.149700	-3.427612E-6
465.000000	19.956055	-3.278548E-6
466.000000	20.272861	-3.258251E-6
467.000000	20.654662	-3.815925E-6
468.000000	20.751403	-3.910791E-6
469.000000	21.019267	-3.458578E-6
470.000000	21.719300	-3.504619E-6
471.000000	21.411241	-3.429214E-6
472.000000	20.649750	-3.897390E-6
473.000000	22.251972	-4.279068E-6
474.000000	23.049872	-3.859027E-6
475.000000	22.166188	-3.261728E-6
476.000000	22.259167	-3.931053E-6
477.000000	23.121391	-3.428467E-6
478.000000	22.958889	-3.227959E-6
479.000000	23.152232	-3.943364E-6
480.000000	23.004168	-4.088230E-6
481.000000	22.464479	-3.642337E-6
482.000000	23.209793	-5.179068E-6
483.000000	23.938644	-5.237462E-6
484.000000	23.911276	-3.679311E-6
485.000000	24.354414	-3.825346E-6
486.000000	24.564761	-4.416260E-6
487.000000	25.264067	-3.543162E-6
488.000000	26.276273	-3.175238E-6
489.000000	26.960325	-3.131948E-6
490.000000	27.246878	-3.563433E-6
491.000000	27.750939	-4.048219E-6
492.000000	28.064488	-4.118083E-6
493.000000	28.370639	-3.875532E-6
494.000000	28.488048	-4.220034E-6
495.000000	29.318621	-4.541479E-6
496.000000	29.516365	-4.766614E-6
497.000000	28.621325	-4.820361E-6
498.000000	28.532805	-5.149333E-6
499.000000	30.312288	-5.981560E-6
500.000000	31.042088	-5.905085E-6
501.000000	30.651302	-5.614492E-6
502.000000	31.155710	-5.578130E-6
503.000000	32.698482	-5.857984E-6
504.000000	32.799628	-5.477722E-6
505.000000	30.794525	-5.815077E-6
506.000000	31.732858	-6.558071E-6
507.000000	32.254607	-6.249898E-6
508.000000	30.646844	-5.275328E-6
509.000000	30.422598	-6.799251E-6
510.000000	30.587996	-7.738538E-6
511.000000	29.676530	-6.851145E-6
512.000000	32.280708	-8.348710E-6
513.000000	33.308363	-8.644136E-6
514.000000	32.592436	-8.784159E-6
515.000000	34.578758	-1.200727E-5
516.000000	35.125182	-1.460541E-5
517.000000	35.225885	-1.512967E-5
518.000000	37.230367	-1.499562E-5
519.000000	36.216147	-1.332791E-5
520.000000	36.775702	-1.528308E-5
521.000000	36.838060	-1.472964E-5
522.000000	35.909297	-8.418025E-6
523.000000	37.675556	-9.587742E-6
524.000000	37.658668	-1.113876E-5
525.000000	36.755508	-1.025802E-5
526.000000	38.078996	-1.365955E-5
527.000000	38.883890	-1.794772E-5
528.000000	39.712384	-2.046952E-5
529.000000	39.379611	-2.045086E-5
530.000000	39.701860	-1.878211E-5
531.000000	39.486040	-1.563824E-5
532.000000	39.997373	-1.486339E-5
533.000000	40.401390	-9.175458E-6
534.000000	40.644003	-8.998959E-6
535.000000	41.847479	-1.414335E-5
536.000000	40.862449	-1.495779E-5
537.000000	41.868017	-1.859951E-5
538.000000	43.222808	-2.265044E-5
539.000000	43.280649	-2.065672E-5
540.000000	43.894695	-2.041886E-5
541.000000	44.748202	-1.607832E-5
542.000000	45.846403	-1.084476E-5
543.000000	47.119583	-1.413915E-5
544.000000	47.267982	-1.287610E-5
545.000000	46.086577	-1.639756E-5
546.000000	46.843082	-2.233230E-5
547.000000	46.944331	-1.831539E-5
548.000000	47.520127	-1.917520E-5
549.000000	48.774165	-2.033549E-5
550.000000	49.198196	-1.463390E-5
551.000000	50.095517	-1.474915E-5
552.000000	50.089144	-1.872626E-5
553.000000	51.195155	-2.058697E-5
554.000000	49.637382	-2.710162E-5
555.000000	49.532673	-2.974616E-5
556.000000	49.415617	-3.254912E-5
557.000000	49.701405	-2.804372E-5
558.000000	51.482655	-2.010737E-5
559.000000	51.626586	-2.312943E-5
560.000000	52.229918	-2.236174E-5
561.000000	52.569351	-2.172994E-5
562.000000	51.351922	-2.916439E-5
563.000000	51.816824	-3.136994E-5
564.000000	53.471723	-2.703975E-5
565.000000	53.329778	-2.543082E-5
566.000000	56.298323	-2.136853E-5
567.000000	56.777425	-2.204448E-5
568.000000	56.837374	-2.741202E-5
569.000000	55.911165	-2.940366E-5
570.000000	54.857822	-3.710371E-5
571.000000	56.317738	-3.281244E-5
572.000000	56.193171	-3.030011E-5
573.000000	57.835231	-2.530711E-5
574.000000	60.139380	-2.033876E-5
575.000000	59.116102	-2.575436E-5
576.000000	58.622818	-3.186985E-5
577.000000	57.828830	-4.099538E-5
578.000000	54.964197	-4.734630E-5
579.000000	56.047140	-4.739165E-5
580.000000	56.496964	-4.038433E-5
581.000000	58.228834	-3.337050E-5
582.000000	60.082337	-2.640394E-5
583.000000	59.352505	-2.974232E-5
584.000000	59.544690	-3.523161E-5
585.000000	58.412734	-4.446822E-5
586.000000	57.892231	-4.853748E-5
587.000000	58.389864	-4.436140E-5
588.000000	59.547918	-4.017801E-5
589.000000	60.425809	-3.245027E-5
590.000000	61.886490	-2.918468E-5
591.000000	57.579583	-3.828087E-5
592.000000	58.001727	-3.837054E-5
593.000000	59.016526	-4.107610E-5
594.000000	58.267687	-4.353118E-5
595.000000	57.839305	-4.459771E-5
596.000000	57.025407	-4.500210E-5
597.000000	56.865002	-4.333589E-5
598.000000	57.667508	-4.190880E-5
599.000000	58.580854	-4.206393E-5
600.000000	59.160342	-4.261148E-5
601.000000	59.747896	-4.497130E-5
602.000000	59.255545	-4.659049E-5
603.000000	58.655033	-4.817970E-5
604.000000	59.322198	-5.073935E-5
605.000000	59.501382	-5.147380E-5
606.000000	59.691798	-5.452349E-5
607.000000	58.279684	-5.516744E-5
608.000000	57.002447	-5.254317E-5
609.000000	55.897078	-4.975604E-5
610.000000	54.791720	-4.351626E-5
611.000000	55.725572	-3.906769E-5
612.000000	58.052740	-3.911843E-5
613.000000	60.672204	-4.272336E-5
614.000000	62.377111	-5.006592E-5
615.000000	61.310622	-5.653563E-5
616.000000	59.381366	-6.137123E-5
617.000000	57.209245	-6.143882E-5
618.000000	55.005341	-5.540860E-5
619.000000	53.734837	-4.940964E-5
620.000000	53.354226	-4.326872E-5
621.000000	55.503325	-3.980189E-5
622.000000	59.363886	-4.145438E-5
623.000000	61.907995	-4.724680E-5
624.000000	62.221336	-5.479895E-5
625.000000	60.956196	-5.767129E-5
626.000000	58.598433	-6.239013E-5
627.000000	57.639713	-6.345871E-5
628.000000	57.064120	-6.063890E-5
629.000000	57.392534	-5.731951E-5
630.000000	57.925395	-5.490743E-5
631.000000	58.260557	-5.215848E-5
632.000000	59.061570	-5.074705E-5
633.000000	59.361244	-5.009938E-5
634.000000	59.788027	-5.050418E-5
635.000000	60.185947	-5.225013E-5
636.000000	60.070103	-5.373348E-5
637.000000	60.176921	-5.665358E-5
638.000000	59.884384	-5.858138E-5
639.000000	59.294845	-5.898465E-5
640.000000	58.986414	-5.856522E-5
641.000000	58.955809	-5.519411E-5
642.000000	59.818902	-5.382172E-5
643.000000	60.221567	-5.373934E-5
644.000000	60.791121	-5.455823E-5
645.000000	60.659309	-5.730838E-5
646.000000	59.413447	-5.762839E-5
647.000000	59.039537	-5.857403E-5
648.000000	58.329754	-5.740491E-5
649.000000	58.833582	-5.366948E-5
650.000000	59.665915	-5.156269E-5
651.000000	60.976440	-5.141142E-5
652.000000	61.625589	-5.344527E-5
653.000000	60.881091	-5.505164E-5
654.000000	60.439037	-5.706574E-5
655.000000	59.754075	-5.828917E-5
656.000000	58.818793	-5.404953E-5
657.000000	59.674765	-5.148941E-5
658.000000	60.213847	-5.089592E-5
659.000000	60.644006	-5.009974E-5
660.000000	61.719122	-5.282260E-5
661.000000	60.910187	-5.530807E-5
662.000000	60.087638	-5.600699E-5
663.000000	59.714175	-5.716930E-5
664.000000	59.038698	-5.521826E-5
665.000000	59.053859	-5.059591E-5
666.000000	60.037609	-4.792558E-5
667.000000	61.006404	-4.733698E-5
668.000000	61.450252	-4.813918E-5
669.000000	61.581781	-5.060832E-5
670.000000	61.247416	-5.436112E-5
671.000000	59.610294	-5.431757E-5
672.000000	59.156594	-5.192077E-5
673.000000	59.665987	-5.141447E-5
674.000000	59.237820	-4.869993E-5
675.000000	60.461420	-4.755967E-5
676.000000	61.136657	-5.058316E-5
677.000000	60.326618	-5.182403E-5
678.000000	60.092758	-5.456237E-5
679.000000	59.288404	-5.545351E-5
680.000000	58.695068	-5.106957E-5
681.000000	59.409047	-4.871142E-5
682.000000	59.961222	-4.952318E-5
683.000000	60.051860	-5.057400E-5
684.000000	60.070271	-5.253408E-5
685.000000	59.942346	-5.697357E-5
686.000000	58.592086	-5.684398E-5
687.000000	57.741620	-5.204052E-5
688.000000	58.928551	-5.295561E-5
689.000000	58.589619	-5.516522E-5
690.000000	58.786327	-5.506841E-5
691.000000	60.190096	-5.863497E-5
692.000000	59.929845	-6.102650E-5
693.000000	59.693893	-5.997663E-5
694.000000	59.369847	-5.565715E-5
695.000000	59.808150	-5.103078E-5
696.000000	60.255094	-4.940158E-5
697.000000	60.848783	-5.148486E-5
698.000000	61.379823	-5.666425E-5
699.000000	60.821222	-6.046968E-5
700.000000	60.395491	-6.108620E-5
701.000000	60.457605	-6.062086E-5
702.000000	60.277627	-5.667099E-5
703.000000	60.892158	-5.293789E-5
704.000000	62.143957	-5.770495E-5
705.000000	61.851200	-6.307078E-5
706.000000	60.686627	-6.273608E-5
707.000000	60.670076	-6.370183E-5
708.000000	60.609456	-6.500564E-5
709.000000	59.943472	-5.799383E-5
710.000000	59.751189	-4.912333E-5
711.000000	62.705947	-5.603855E-5
712.000000	62.763940	-6.886051E-5
713.000000	61.893977	-7.128284E-5
714.000000	61.130070	-6.637209E-5
715.000000	60.758240	-5.885619E-5
716.000000	62.114814	-5.514854E-5
717.000000	63.318929	-5.555324E-5
718.000000	63.964950	-5.623462E-5
719.000000	64.468729	-5.959892E-5
720.000000	63.743511	-6.123399E-5
721.000000	63.459278	-6.231103E-5
722.000000	62.842744	-6.228219E-5
723.000000	63.008819	-5.754252E-5
724.000000	64.331310	-5.378656E-5
725.000000	65.751348	-5.533070E-5
726.000000	66.219466	-5.817069E-5
727.000000	66.103930	-6.055509E-5
728.000000	65.227107	-6.176346E-5
729.000000	64.769664	-6.071385E-5
730.000000	64.743989	-5.758572E-5
731.000000	65.541812	-5.475331E-5
732.000000	66.788671	-5.428050E-5
733.000000	67.071435	-5.661802E-5
734.000000	67.193676	-6.091284E-5
735.000000	66.059913	-6.211823E-5
736.000000	65.528138	-6.056938E-5
737.000000	65.600833	-5.910192E-5
738.000000	65.773440	-5.595615E-5
739.000000	67.316364	-5.474649E-5
740.000000	67.864142	-5.712822E-5
741.000000	67.292529	-5.905209E-5
742.000000	67.213237	-6.198343E-5
743.000000	66.173512	-6.097235E-5
744.000000	65.674206	-5.699336E-5
745.000000	66.721446	-5.594962E-5
746.000000	66.988089	-5.487378E-5
747.000000	67.400807	-5.486565E-5
748.000000	67.827113	-5.758176E-5
749.000000	67.509790	-5.968457E-5
750.000000	66.999283	-5.952155E-5
751.000000	66.519509	-5.813079E-5
752.000000	66.637408	-5.534169E-5
753.000000	67.243040	-5.360370E-5
754.000000	67.540795	-5.360362E-5
755.000000	67.429870	-5.450736E-5
756.000000	67.431392	-5.787917E-5
757.000000	66.187749	-5.910122E-5
758.000000	65.490745	-5.750159E-5
759.000000	65.715770	-5.656295E-5
760.000000	65.545426	-5.518369E-5
761.000000	65.562167	-5.283225E-5
762.000000	66.095530	-5.280717E-5
763.000000	65.925763	-5.494884E-5
764.000000	65.571134	-5.664351E-5
765.000000	65.128246	-5.672415E-5
766.000000	64.723609	-5.483653E-5
767.000000	64.669125	-5.304357E-5
768.000000	64.741296	-5.289768E-5
769.000000	64.742423	-5.310187E-5
770.000000	64.882087	-5.349693E-5
771.000000	64.523958	-5.410517E-5
772.000000	64.446209	-5.517554E-5
773.000000	63.995971	-5.530784E-5
774.000000	63.458880	-5.461032E-5
775.000000	63.387752	-5.317399E-5
776.000000	63.358722	-5.209872E-5
777.000000	63.375503	-5.264488E-5
778.000000	63.005747	-5.411007E-5
779.000000	62.518851	-5.570982E-5
780.000000	61.780205	-5.583501E-5
781.000000	61.390226	-5.494147E-5
782.000000	61.412712	-5.346280E-5
783.000000	61.690614	-5.214210E-5
784.000000	61.968425	-5.170394E-5
785.000000	62.053433	-5.251353E-5
786.000000	61.592330	-5.440654E-5
787.000000	61.180089	-5.563038E-5
788.000000	60.540460	-5.567214E-5
789.000000	60.201904	-5.445121E-5
790.000000	60.269601	-5.284381E-5
791.000000	60.360025	-5.248583E-5
792.000000	60.454428	-5.304937E-5
793.000000	60.202415	-5.460433E-5
794.000000	59.522183	-5.570077E-5
795.000000	59.134931	-5.607497E-5
796.000000	58.760774	-5.501473E-5
797.000000	58.605813	-5.285672E-5
798.000000	58.845325	-5.177627E-5
799.000000	59.254973	-5.133859E-5
800.000000	59.254957	-5.214172E-5
801.000000	58.961195	-5.363456E-5
802.000000	58.505381	-5.390876E-5
803.000000	58.161699	-5.290036E-5
804.000000	58.078353	-5.063656E-5
805.000000	58.558107	-4.901845E-5
806.000000	58.954223	-4.900462E-5
807.000000	58.761203	-4.916626E-5
808.000000	58.669385	-5.010733E-5
809.000000	58.326103	-5.094149E-5
810.000000	57.863898	-4.977907E-5
811.000000	57.935191	-4.879908E-5
812.000000	58.182126	-4.809169E-5
813.000000	58.650530	-4.694882E-5
814.000000	59.041491	-4.709585E-5
815.000000	58.850285	-4.748039E-5
816.000000	58.768799	-4.834581E-5
817.000000	57.988811	-4.913929E-5
818.000000	57.732440	-4.751807E-5
819.000000	58.176397	-4.610799E-5
820.000000	58.274271	-4.620573E-5
821.000000	58.270896	-4.625569E-5
822.000000	58.299322	-4.722293E-5
823.000000	58.033485	-4.775656E-5
824.000000	57.862487	-4.647370E-5
825.000000	58.201145	-4.605752E-5
826.000000	58.146958	-4.596843E-5
827.000000	58.351456	-4.490625E-5
828.000000	59.116679	-4.472308E-5
829.000000	59.468193	-4.483981E-5
830.000000	59.327691	-4.541289E-5
831.000000	59.255190	-4.695445E-5
832.000000	58.519448	-4.687273E-5
833.000000	58.566304	-4.574691E-5
834.000000	59.032178	-4.571672E-5
835.000000	59.118091	-4.600978E-5
836.000000	59.462782	-4.695235E-5
837.000000	59.210781	-4.804169E-5
838.000000	58.984602	-4.806012E-5
839.000000	59.111229	-4.747578E-5
840.000000	59.017271	-4.671811E-5
841.000000	59.160612	-4.521672E-5
842.000000	59.590403	-4.403133E-5
843.000000	59.919135	-4.351188E-5
844.000000	60.378744	-4.311091E-5
845.000000	60.246771	-4.321731E-5
846.000000	60.168014	-4.303595E-5
847.000000	59.971747	-4.238715E-5
848.000000	59.971902	-4.229089E-5
849.000000	60.073903	-4.133838E-5
850.000000	60.481142	-4.047769E-5
851.000000	60.873203	-4.037443E-5
852.000000	60.753639	-3.973091E-5
853.000000	60.360468	-3.907469E-5
854.000000	60.381836	-3.886865E-5
855.000000	60.413551	-3.802342E-5
856.000000	60.968699	-3.680457E-5
857.000000	61.242005	-3.559947E-5
858.000000	61.645071	-3.537118E-5
859.000000	61.468590	-3.551733E-5
860.000000	61.244639	-3.482081E-5
861.000000	61.480258	-3.395174E-5
862.000000	61.513434	-3.340972E-5
863.000000	61.457671	-3.275945E-5
864.000000	61.723841	-3.230305E-5
865.000000	61.483356	-3.194577E-5
866.000000	61.288859	-3.107117E-5
867.000000	61.698676	-3.061867E-5
868.000000	61.652012	-3.002819E-5
869.000000	61.526013	-2.856339E-5
870.000000	62.187101	-2.797129E-5
871.000000	62.126044	-2.773700E-5
872.000000	61.874995	-2.709325E-5
873.000000	62.280254	-2.695901E-5
874.000000	62.251774	-2.665640E-5
875.000000	62.139906	-2.601212E-5
876.000000	62.080154	-2.585503E-5
877.000000	61.957740	-2.565025E-5
878.000000	62.108273	-2.533191E-5
879.000000	62.064029	-2.481479E-5
880.000000	61.943561	-2.421804E-5
881.000000	62.105955	-2.407026E-5
882.000000	62.071338	-2.387547E-5
883.000000	62.069087	-2.336903E-5
884.000000	62.156166	-2.305484E-5
885.000000	61.994155	-2.282790E-5
886.000000	62.145263	-2.267945E-5
887.000000	62.223931	-2.256272E-5
888.000000	62.305363	-2.231895E-5
889.000000	62.397356	-2.222292E-5
890.000000	62.512191	-2.233865E-5
891.000000	62.300900	-2.214020E-5
892.000000	62.527345	-2.163017E-5
893.000000	62.963106	-2.103396E-5
894.000000	63.393038	-2.089216E-5
895.000000	63.518095	-2.101554E-5
896.000000	63.656045	-2.107956E-5
897.000000	63.806914	-2.108262E-5
898.000000	63.729290	-2.090227E-5
899.000000	63.598120	-2.093312E-5
900.000000	63.091146	-2.111643E-5
901.000000	63.127566	-2.122864E-5
902.000000	63.346322	-2.155223E-5
903.000000	63.350683	-2.193768E-5
904.000000	63.365737	-2.236196E-5
905.000000	63.073716	-2.281358E-5
906.000000	62.737812	-2.235091E-5
907.000000	63.143558	-2.168306E-5
908.000000	63.235028	-2.146829E-5
909.000000	63.484060	-2.140360E-5
910.000000	64.019750	-2.168346E-5
911.000000	64.186973	-2.211018E-5
912.000000	64.092871	-2.227386E-5
913.000000	63.941318	-2.243155E-5
914.000000	63.395512	-2.213790E-5
915.000000	63.379345	-2.162525E-5
916.000000	63.611090	-2.147558E-5
917.000000	63.914809	-2.172588E-5
918.000000	63.846962	-2.232375E-5
919.000000	63.555213	-2.267572E-5
920.000000	63.401500	-2.248081E-5
921.000000	63.393479	-2.237493E-5
922.000000	62.963882	-2.187302E-5
923.000000	63.039765	-2.151381E-5
924.000000	63.502050	-2.175614E-5
925.000000	63.356913	-2.178622E-5
926.000000	63.296562	-2.214360E-5
927.000000	63.011471	-2.241665E-5
928.000000	62.791582	-2.197899E-5
929.000000	62.696306	-2.160563E-5
930.000000	62.375950	-2.111666E-5
931.000000	62.571596	-2.084803E-5
932.000000	62.414825	-2.122075E-5
933.000000	62.182892	-2.143444E-5
934.000000	62.129681	-2.165409E-5
935.000000	61.823138	-2.170883E-5
936.000000	61.486068	-2.115767E-5
937.000000	61.480738	-2.087108E-5
938.000000	61.320122	-2.052428E-5
939.000000	61.597248	-2.025139E-5
940.000000	61.852067	-2.053800E-5
941.000000	61.645100	-2.061784E-5
942.000000	61.501443	-2.058538E-5
943.000000	61.199071	-2.047786E-5
944.000000	60.850527	-1.998475E-5
945.000000	60.924170	-1.986760E-5
946.000000	60.811107	-1.997294E-5
947.000000	60.763394	-2.003639E-5
948.000000	60.703695	-2.028057E-5
949.000000	60.392180	-2.022934E-5
950.000000	60.272782	-2.005848E-5
951.000000	60.211131	-1.997661E-5
952.000000	60.052283	-1.945138E-5
953.000000	60.255767	-1.917777E-5
954.000000	60.513939	-1.919770E-5
955.000000	60.500276	-1.911580E-5
956.000000	60.525295	-1.922845E-5
957.000000	60.168549	-1.917775E-5
958.000000	59.992618	-1.909000E-5
959.000000	59.846177	-1.911173E-5
960.000000	59.653983	-1.891308E-5
961.000000	59.644118	-1.885545E-5
962.000000	59.665913	-1.888931E-5
963.000000	59.665643	-1.870728E-5
964.000000	59.731292	-1.870592E-5
965.000000	59.511976	-1.850331E-5
966.000000	59.457830	-1.816697E-5
967.000000	59.570327	-1.803312E-5
968.000000	59.444320	-1.772787E-5
969.000000	59.769749	-1.756002E-5
970.000000	59.696678	-1.753642E-5
971.000000	59.352389	-1.749527E-5
972.000000	58.946860	-1.761126E-5
973.000000	58.633038	-1.753600E-5
974.000000	58.639011	-1.739278E-5
975.000000	58.510106	-1.732345E-5
976.000000	58.504857	-1.708398E-5
977.000000	58.626826	-1.687937E-5
978.000000	58.657810	-1.676641E-5
979.000000	58.348406	-1.639914E-5
980.000000	58.516854	-1.616567E-5
981.000000	58.485026	-1.599008E-5
982.000000	58.195477	-1.573237E-5
983.000000	58.240533	-1.564582E-5
984.000000	58.014358	-1.556778E-5
985.000000	57.843700	-1.556449E-5
986.000000	57.522733	-1.556787E-5
987.000000	57.255827	-1.555941E-5
988.000000	56.889466	-1.564010E-5
989.000000	56.716992	-1.569558E-5
990.000000	56.586040	-1.547559E-5
991.000000	56.440118	-1.522396E-5
992.000000	56.451334	-1.498090E-5
993.000000	56.453684	-1.472933E-5
994.000000	56.323915	-1.445429E-5
995.000000	56.255918	-1.418826E-5
996.000000	56.248580	-1.410953E-5
997.000000	55.970937	-1.412042E-5
998.000000	55.568662	-1.398261E-5
999.000000	55.360281	-1.399143E-5
1000.000000	54.957784	-1.406689E-5
1001.000000	54.521591	-1.416537E-5
1002.000000	54.138246	-1.432670E-5
1003.000000	53.853535	-1.436948E-5
1004.000000	53.715842	-1.426090E-5
1005.000000	53.670663	-1.407926E-5
1006.000000	53.536241	-1.383531E-5
1007.000000	53.541417	-1.375790E-5
1008.000000	53.231999	-1.373483E-5
1009.000000	53.147675	-1.362588E-5
1010.000000	52.998098	-1.360981E-5
1011.000000	52.820731	-1.357856E-5
1012.000000	52.443605	-1.347661E-5
1013.000000	52.173863	-1.348585E-5
1014.000000	51.794345	-1.346804E-5
1015.000000	51.307602	-1.347194E-5
1016.000000	51.006543	-1.349595E-5
1017.000000	50.546262	-1.353806E-5
1018.000000	50.093664	-1.366450E-5
1019.000000	49.558111	-1.362627E-5
1020.000000	49.296074	-1.353131E-5
1021.000000	49.001160	-1.354853E-5
1022.000000	48.623899	-1.365349E-5
1023.000000	48.207011	-1.382182E-5
1024.000000	47.916824	-1.413862E-5
1025.000000	47.483199	-1.448326E-5
1026.000000	46.991392	-1.480823E-5
1027.000000	46.593556	-1.502992E-5
1028.000000	46.081674	-1.508556E-5
1029.000000	45.667090	-1.504376E-5
1030.000000	45.483051	-1.499953E-5
1031.000000	45.366221	-1.490610E-5
1032.000000	45.413382	-1.469803E-5
1033.000000	45.318132	-1.446201E-5
1034.000000	45.217100	-1.437349E-5
1035.000000	44.745404	-1.437131E-5
1036.000000	43.961081	-1.425671E-5
1037.000000	43.242156	-1.403706E-5
1038.000000	42.673750	-1.383518E-5
1039.000000	42.096475	-1.389367E-5
1040.000000	41.927818	-1.412253E-5
1041.000000	41.817606	-1.390126E-5
1042.000000	41.581574	-1.338057E-5
1043.000000	41.298856	-1.293013E-5
1044.000000	40.924495	-1.263710E-5
1045.000000	40.871665	-1.252396E-5
1046.000000	40.685780	-1.246651E-5
1047.000000	40.382077	-1.249099E-5
1048.000000	39.960923	-1.251648E-5
1049.000000	39.561605	-1.252667E-5
1050.000000	39.007578	-1.269446E-5
1051.000000	38.418644	-1.298915E-5
1052.000000	37.933725	-1.332484E-5
1053.000000	37.435426	-1.385048E-5
1054.000000	37.151713	-1.432029E-5
1055.000000	36.904097	-1.470056E-5
1056.000000	36.892474	-1.523108E-5
1057.000000	36.575150	-1.586460E-5
1058.000000	36.123798	-1.665490E-5
1059.000000	35.854702	-1.782732E-5
1060.000000	35.575322	-1.956215E-5
1061.000000	35.310126	-2.222699E-5
1062.000000	34.994601	-2.580381E-5
1063.000000	35.475510	-3.329428E-5
1064.000000	36.530205	-5.894767E-5
1065.000000	34.022905	-8.786926E-5
1066.000000	30.987252	-7.425122E-5
1067.000000	28.858973	-3.991947E-5
1068.000000	27.586363	-2.780251E-5
1069.000000	25.571720	-2.404318E-5
1070.000000	25.589075	-1.952362E-5
1071.000000	28.086049	-1.600496E-5
1072.000000	29.753125	-1.342638E-5
1073.000000	27.933804	-1.146589E-5
1074.000000	26.909778	-1.020699E-5
1075.000000	26.580075	-9.480647E-6
1076.000000	26.623529	-8.990980E-6
1077.000000	26.423644	-8.492787E-6
1078.000000	25.833100	-7.986427E-6
1079.000000	24.902656	-7.498471E-6
1080.000000	23.804767	-7.058359E-6
1081.000000	22.957287	-6.649257E-6
1082.000000	22.513905	-6.386430E-6
1083.000000	22.368275	-6.221560E-6
1084.000000	21.990047	-5.939888E-6
1085.000000	21.364965	-5.653497E-6
1086.000000	20.969637	-5.452914E-6
1087.000000	20.361845	-5.214336E-6
1088.000000	19.773212	-5.002770E-6
1089.000000	19.332699	-4.880650E-6
1090.000000	18.922525	-4.740505E-6
1091.000000	18.572248	-4.564253E-6
1092.000000	18.059300	-4.369155E-6
1093.000000	17.383175	-4.179922E-6
1094.000000	16.694797	-4.059943E-6
1095.000000	16.130764	-3.926929E-6
1096.000000	15.939726	-3.811509E-6
1097.000000	15.625619	-3.740458E-6
1098.000000	15.097557	-3.616168E-6
1099.000000	14.689471	-3.605752E-6
1100.000000	14.359054	-3.612102E-6
