Wavelength (nm)	EQE (%)	Current (A)	Dark Current (A) -> 	-74.288732333E-12	
400.000000	14.124464	-1.780097E-7
401.000000	15.055495	-2.916912E-7
402.000000	15.145233	-4.034243E-7
403.000000	14.847210	-6.315593E-7
404.000000	14.425113	-8.498619E-7
405.000000	14.494241	-1.033588E-6
406.000000	14.630295	-1.237267E-6
407.000000	15.043662	-1.238305E-6
408.000000	15.177786	-1.502347E-6
409.000000	15.343201	-1.456294E-6
410.000000	15.515180	-1.710631E-6
411.000000	15.473731	-2.032737E-6
412.000000	15.576471	-2.324839E-6
413.000000	15.642808	-2.599562E-6
414.000000	15.735742	-2.666003E-6
415.000000	15.552726	-3.030423E-6
416.000000	15.812088	-2.924668E-6
417.000000	16.477460	-2.016503E-6
418.000000	16.056587	-1.319579E-6
419.000000	16.110854	-1.228169E-6
420.000000	15.788085	-1.111511E-6
421.000000	15.699218	-1.102490E-6
422.000000	15.701679	-1.096369E-6
423.000000	16.068008	-1.223543E-6
424.000000	16.107585	-1.337909E-6
425.000000	15.623422	-1.346394E-6
426.000000	15.671873	-1.399908E-6
427.000000	16.151342	-1.570770E-6
428.000000	16.011226	-1.627078E-6
429.000000	15.799039	-1.504144E-6
430.000000	15.785403	-1.651545E-6
431.000000	16.189286	-1.698179E-6
432.000000	16.301171	-1.732685E-6
433.000000	16.388357	-1.698714E-6
434.000000	15.962410	-2.010956E-6
435.000000	16.545681	-2.442416E-6
436.000000	16.434225	-2.288455E-6
437.000000	16.160767	-2.072334E-6
438.000000	16.409671	-2.438920E-6
439.000000	17.112395	-2.984071E-6
440.000000	17.161891	-2.764150E-6
441.000000	16.982670	-2.117663E-6
442.000000	17.170479	-2.238142E-6
443.000000	17.774928	-2.895949E-6
444.000000	17.662959	-2.955881E-6
445.000000	17.732056	-2.965877E-6
446.000000	18.398680	-3.031855E-6
447.000000	18.322329	-2.779051E-6
448.000000	18.940486	-2.501828E-6
449.000000	18.766103	-2.640585E-6
450.000000	19.271177	-2.939761E-6
451.000000	18.446422	-2.932815E-6
452.000000	18.078383	-3.384891E-6
453.000000	18.444240	-3.731119E-6
454.000000	19.112441	-3.585132E-6
455.000000	20.042155	-3.095689E-6
456.000000	20.300571	-3.549685E-6
457.000000	20.463226	-4.338546E-6
458.000000	20.584169	-4.672791E-6
459.000000	20.444775	-5.000055E-6
460.000000	20.681530	-4.848397E-6
461.000000	21.425485	-3.827825E-6
462.000000	21.399173	-3.015335E-6
463.000000	21.380024	-3.121855E-6
464.000000	21.260095	-3.616498E-6
465.000000	21.364395	-3.509922E-6
466.000000	21.183332	-3.404582E-6
467.000000	21.458793	-3.964487E-6
468.000000	21.711397	-4.091711E-6
469.000000	21.894798	-3.602640E-6
470.000000	22.970668	-3.706539E-6
471.000000	22.531041	-3.608561E-6
472.000000	21.030538	-3.969259E-6
473.000000	22.874591	-4.398798E-6
474.000000	23.900450	-4.001431E-6
475.000000	22.637881	-3.331137E-6
476.000000	22.540726	-3.980777E-6
477.000000	23.739221	-3.520080E-6
478.000000	23.781131	-3.343564E-6
479.000000	23.695883	-4.035960E-6
480.000000	23.179995	-4.119477E-6
481.000000	22.580187	-3.661097E-6
482.000000	23.328402	-5.205535E-6
483.000000	23.930746	-5.235734E-6
484.000000	24.346385	-3.746263E-6
485.000000	24.505069	-3.849009E-6
486.000000	24.638045	-4.429435E-6
487.000000	24.975688	-3.502719E-6
488.000000	26.674475	-3.223357E-6
489.000000	27.885012	-3.239367E-6
490.000000	28.082948	-3.672777E-6
491.000000	28.321564	-4.131460E-6
492.000000	28.380256	-4.164418E-6
493.000000	29.601668	-4.043695E-6
494.000000	29.843809	-4.420868E-6
495.000000	29.849950	-4.623782E-6
496.000000	30.151853	-4.869239E-6
497.000000	28.771087	-4.845584E-6
498.000000	29.297138	-5.287273E-6
499.000000	30.998887	-6.117048E-6
500.000000	32.230193	-6.131097E-6
501.000000	31.734360	-5.812879E-6
502.000000	32.613482	-5.839130E-6
503.000000	33.950143	-6.082221E-6
504.000000	34.704728	-5.795884E-6
505.000000	31.746305	-5.994806E-6
506.000000	33.066209	-6.833628E-6
507.000000	34.531300	-6.691047E-6
508.000000	32.138831	-5.532148E-6
509.000000	30.569706	-6.832128E-6
510.000000	31.069708	-7.860407E-6
511.000000	30.259586	-6.985750E-6
512.000000	32.364630	-8.370414E-6
513.000000	33.565707	-8.710922E-6
514.000000	32.550997	-8.772990E-6
515.000000	34.451144	-1.196296E-5
516.000000	34.793260	-1.446740E-5
517.000000	35.270805	-1.514897E-5
518.000000	38.280338	-1.541853E-5
519.000000	36.938880	-1.359388E-5
520.000000	37.001590	-1.537695E-5
521.000000	37.521585	-1.500295E-5
522.000000	37.553008	-8.803352E-6
523.000000	38.656926	-9.837483E-6
524.000000	38.140532	-1.128128E-5
525.000000	36.663733	-1.023241E-5
526.000000	37.880492	-1.358835E-5
527.000000	39.017375	-1.800934E-5
528.000000	40.269560	-2.075672E-5
529.000000	39.745014	-2.064062E-5
530.000000	40.613639	-1.921346E-5
531.000000	40.737304	-1.613380E-5
532.000000	40.865947	-1.518616E-5
533.000000	41.535320	-9.432982E-6
534.000000	41.382929	-9.162564E-6
535.000000	42.370636	-1.432017E-5
536.000000	41.121547	-1.505263E-5
537.000000	42.527524	-1.889249E-5
538.000000	44.235919	-2.318135E-5
539.000000	45.108999	-2.152935E-5
540.000000	45.825783	-2.131716E-5
541.000000	47.302697	-1.699617E-5
542.000000	50.285591	-1.189483E-5
543.000000	49.921000	-1.497977E-5
544.000000	49.630458	-1.351965E-5
545.000000	47.868107	-1.703143E-5
546.000000	48.077714	-2.292090E-5
547.000000	49.392091	-1.927039E-5
548.000000	50.047288	-2.019495E-5
549.000000	51.605941	-2.151615E-5
550.000000	52.626606	-1.565367E-5
551.000000	53.050813	-1.561925E-5
552.000000	52.534177	-1.964036E-5
553.000000	53.692382	-2.159117E-5
554.000000	51.448159	-2.809029E-5
555.000000	51.588192	-3.098058E-5
556.000000	51.555177	-3.395840E-5
557.000000	52.280809	-2.949914E-5
558.000000	54.590795	-2.132130E-5
559.000000	54.313489	-2.433320E-5
560.000000	55.581373	-2.379663E-5
561.000000	56.515040	-2.336092E-5
562.000000	54.116731	-3.073462E-5
563.000000	54.065390	-3.273122E-5
564.000000	56.744095	-2.869453E-5
565.000000	57.623572	-2.747835E-5
566.000000	61.722752	-2.342742E-5
567.000000	62.429040	-2.423878E-5
568.000000	60.585020	-2.921946E-5
569.000000	60.450403	-3.179084E-5
570.000000	59.435700	-4.020001E-5
571.000000	61.334931	-3.573561E-5
572.000000	61.260541	-3.303250E-5
573.000000	63.776380	-2.790679E-5
574.000000	66.602450	-2.252453E-5
575.000000	64.474519	-2.808879E-5
576.000000	63.251651	-3.438628E-5
577.000000	62.287771	-4.415636E-5
578.000000	59.586770	-5.132820E-5
579.000000	60.601276	-5.124248E-5
580.000000	61.626977	-4.405129E-5
581.000000	63.861312	-3.659843E-5
582.000000	66.547848	-2.924529E-5
583.000000	64.872623	-3.250852E-5
584.000000	64.427228	-3.812052E-5
585.000000	62.497634	-4.757795E-5
586.000000	62.398124	-5.231527E-5
587.000000	63.441727	-4.819952E-5
588.000000	64.707264	-4.365911E-5
589.000000	65.737762	-3.530293E-5
590.000000	67.347517	-3.176002E-5
591.000000	62.478740	-4.153800E-5
592.000000	63.421539	-4.195597E-5
593.000000	64.303868	-4.475614E-5
594.000000	63.673924	-4.757013E-5
595.000000	63.243326	-4.876455E-5
596.000000	62.509948	-4.933027E-5
597.000000	62.284818	-4.746625E-5
598.000000	63.027933	-4.580439E-5
599.000000	63.920474	-4.589804E-5
600.000000	64.853643	-4.671220E-5
601.000000	65.314116	-4.916091E-5
602.000000	65.013947	-5.111812E-5
603.000000	64.342647	-5.285155E-5
604.000000	65.011410	-5.560544E-5
605.000000	64.845083	-5.609656E-5
606.000000	65.306348	-5.965191E-5
607.000000	63.624824	-6.022714E-5
608.000000	62.546770	-5.765376E-5
609.000000	61.386980	-5.464280E-5
610.000000	60.128093	-4.775447E-5
611.000000	61.150614	-4.287104E-5
612.000000	63.723790	-4.293982E-5
613.000000	66.427197	-4.677584E-5
614.000000	68.504134	-5.498367E-5
615.000000	67.723344	-6.244892E-5
616.000000	65.781379	-6.798570E-5
617.000000	62.908275	-6.755919E-5
618.000000	60.572381	-6.101646E-5
619.000000	59.151981	-5.439075E-5
620.000000	58.538736	-4.747321E-5
621.000000	60.873073	-4.365258E-5
622.000000	65.201262	-4.553068E-5
623.000000	68.041267	-5.192758E-5
624.000000	68.770184	-6.056659E-5
625.000000	67.135115	-6.351723E-5
626.000000	64.616292	-6.879738E-5
627.000000	63.500893	-6.991161E-5
628.000000	62.593066	-6.651420E-5
629.000000	63.254750	-6.317426E-5
630.000000	63.757738	-6.043591E-5
631.000000	63.798349	-5.711626E-5
632.000000	64.931246	-5.579041E-5
633.000000	65.126240	-5.496489E-5
634.000000	65.362275	-5.521287E-5
635.000000	65.875384	-5.718939E-5
636.000000	65.939532	-5.898376E-5
637.000000	65.636320	-6.179334E-5
638.000000	65.366926	-6.394463E-5
639.000000	64.609531	-6.427153E-5
640.000000	64.344229	-6.388477E-5
641.000000	64.093409	-6.000390E-5
642.000000	65.223611	-5.868457E-5
643.000000	65.584217	-5.852476E-5
644.000000	66.071863	-5.929754E-5
645.000000	65.769978	-6.213672E-5
646.000000	64.369269	-6.243532E-5
647.000000	63.857111	-6.335362E-5
648.000000	63.084800	-6.208456E-5
649.000000	63.289254	-5.773406E-5
650.000000	64.693799	-5.590773E-5
651.000000	66.066256	-5.570283E-5
652.000000	66.565409	-5.772936E-5
653.000000	65.679613	-5.939069E-5
654.000000	64.915026	-6.129191E-5
655.000000	63.618504	-6.205886E-5
656.000000	62.704056	-5.761976E-5
657.000000	63.896126	-5.513175E-5
658.000000	64.578061	-5.458478E-5
659.000000	65.164704	-5.383441E-5
660.000000	66.348444	-5.678462E-5
661.000000	65.069155	-5.908452E-5
662.000000	64.067264	-5.971635E-5
663.000000	63.474292	-6.076917E-5
664.000000	62.490336	-5.844654E-5
665.000000	62.594217	-5.362921E-5
666.000000	63.947441	-5.104664E-5
667.000000	65.210363	-5.059898E-5
668.000000	65.594227	-5.138550E-5
669.000000	65.689742	-5.398427E-5
670.000000	65.448325	-5.808970E-5
671.000000	63.313332	-5.769182E-5
672.000000	63.017944	-5.530981E-5
673.000000	63.581191	-5.478822E-5
674.000000	63.084465	-5.186229E-5
675.000000	64.439944	-5.068922E-5
676.000000	64.899159	-5.369617E-5
677.000000	63.887723	-5.488322E-5
678.000000	63.615998	-5.776136E-5
679.000000	62.927798	-5.885750E-5
680.000000	62.207163	-5.412538E-5
681.000000	63.300574	-5.190221E-5
682.000000	63.885399	-5.276424E-5
683.000000	63.762618	-5.369910E-5
684.000000	63.738069	-5.574173E-5
685.000000	63.473963	-6.033028E-5
686.000000	62.021655	-6.017122E-5
687.000000	61.020481	-5.499565E-5
688.000000	62.642916	-5.629349E-5
689.000000	61.865198	-5.824935E-5
690.000000	62.630308	-5.866928E-5
691.000000	63.960310	-6.230777E-5
692.000000	63.933339	-6.510326E-5
693.000000	63.419948	-6.372033E-5
694.000000	63.374953	-5.941180E-5
695.000000	63.344782	-5.404838E-5
696.000000	63.742179	-5.226055E-5
697.000000	64.378361	-5.447127E-5
698.000000	64.903847	-5.991754E-5
699.000000	64.160137	-6.378930E-5
700.000000	63.574215	-6.430128E-5
701.000000	63.857703	-6.403014E-5
702.000000	63.618926	-5.981237E-5
703.000000	64.363135	-5.595545E-5
704.000000	65.654021	-6.096428E-5
705.000000	65.156330	-6.644108E-5
706.000000	63.778446	-6.593231E-5
707.000000	63.836899	-6.702691E-5
708.000000	63.913025	-6.854883E-5
709.000000	62.753157	-6.071213E-5
710.000000	62.632035	-5.149176E-5
711.000000	65.658443	-5.867712E-5
712.000000	66.211696	-7.264317E-5
713.000000	65.012161	-7.487403E-5
714.000000	64.278352	-6.979034E-5
715.000000	63.968622	-6.196607E-5
716.000000	65.363605	-5.803297E-5
717.000000	66.235499	-5.811211E-5
718.000000	67.173274	-5.905521E-5
719.000000	67.530952	-6.242983E-5
720.000000	66.496209	-6.387831E-5
721.000000	66.064861	-6.486947E-5
722.000000	65.738417	-6.515203E-5
723.000000	65.187320	-5.953203E-5
724.000000	67.052100	-5.606138E-5
725.000000	68.282400	-5.746062E-5
726.000000	68.425708	-6.010877E-5
727.000000	68.361299	-6.262298E-5
728.000000	67.030172	-6.347078E-5
729.000000	66.293985	-6.214272E-5
730.000000	66.256361	-5.893088E-5
731.000000	67.089092	-5.604590E-5
732.000000	68.598088	-5.575105E-5
733.000000	69.007489	-5.825233E-5
734.000000	69.111370	-6.265128E-5
735.000000	67.846003	-6.379775E-5
736.000000	67.050090	-6.197616E-5
737.000000	67.362315	-6.068890E-5
738.000000	67.085786	-5.707262E-5
739.000000	68.504302	-5.571261E-5
740.000000	69.229501	-5.827759E-5
741.000000	68.436450	-6.005593E-5
742.000000	68.074751	-6.277791E-5
743.000000	67.422182	-6.212288E-5
744.000000	66.917525	-5.807234E-5
745.000000	67.865783	-5.690921E-5
746.000000	68.151691	-5.582695E-5
747.000000	68.865086	-5.605760E-5
748.000000	69.298584	-5.883096E-5
749.000000	68.646160	-6.068922E-5
750.000000	67.837165	-6.026592E-5
751.000000	67.580260	-5.905777E-5
752.000000	67.527815	-5.608116E-5
753.000000	68.212155	-5.437625E-5
754.000000	68.487192	-5.435473E-5
755.000000	68.629444	-5.547705E-5
756.000000	68.704622	-5.897204E-5
757.000000	67.427271	-6.020803E-5
758.000000	66.815106	-5.866439E-5
759.000000	66.794427	-5.749137E-5
760.000000	66.877896	-5.630551E-5
761.000000	67.153871	-5.411490E-5
762.000000	67.884223	-5.423625E-5
763.000000	67.798338	-5.650962E-5
764.000000	67.222195	-5.806978E-5
765.000000	66.786185	-5.816815E-5
766.000000	66.179958	-5.607041E-5
767.000000	66.475606	-5.452530E-5
768.000000	66.719064	-5.451364E-5
769.000000	66.727178	-5.472977E-5
770.000000	66.817778	-5.509296E-5
771.000000	66.754692	-5.597570E-5
772.000000	66.149893	-5.663414E-5
773.000000	65.947911	-5.699478E-5
774.000000	65.654932	-5.650016E-5
775.000000	65.471567	-5.492204E-5
776.000000	65.832095	-5.413253E-5
777.000000	65.835831	-5.468863E-5
778.000000	65.549592	-5.629476E-5
779.000000	65.086632	-5.799794E-5
780.000000	64.250627	-5.806770E-5
781.000000	64.040371	-5.731323E-5
782.000000	63.985129	-5.570222E-5
783.000000	64.431583	-5.445882E-5
784.000000	64.585710	-5.388769E-5
785.000000	64.835563	-5.486794E-5
786.000000	64.476290	-5.695404E-5
787.000000	63.775715	-5.799055E-5
788.000000	63.193956	-5.811226E-5
789.000000	62.864438	-5.685941E-5
790.000000	63.153612	-5.537248E-5
791.000000	63.311396	-5.505218E-5
792.000000	63.359815	-5.559888E-5
793.000000	62.967526	-5.711232E-5
794.000000	62.124160	-5.813570E-5
795.000000	61.762762	-5.856682E-5
796.000000	61.220190	-5.731736E-5
797.000000	61.146490	-5.514817E-5
798.000000	61.446197	-5.406470E-5
799.000000	61.887398	-5.361932E-5
800.000000	61.903709	-5.447250E-5
801.000000	61.398549	-5.585172E-5
802.000000	60.886235	-5.610256E-5
803.000000	60.496895	-5.502431E-5
804.000000	60.450414	-5.270468E-5
805.000000	60.956281	-5.102594E-5
806.000000	61.329778	-5.097925E-5
807.000000	61.142641	-5.115884E-5
808.000000	61.009955	-5.210633E-5
809.000000	60.543258	-5.287794E-5
810.000000	60.055614	-5.166456E-5
811.000000	60.035718	-5.056837E-5
812.000000	60.249880	-4.980083E-5
813.000000	60.744671	-4.862515E-5
814.000000	61.109898	-4.874576E-5
815.000000	60.886999	-4.912361E-5
816.000000	60.738140	-4.996588E-5
817.000000	59.884083	-5.074533E-5
818.000000	59.570554	-4.903097E-5
819.000000	60.069684	-4.760852E-5
820.000000	60.276064	-4.779295E-5
821.000000	60.168899	-4.776233E-5
822.000000	60.041218	-4.863388E-5
823.000000	59.670323	-4.910354E-5
824.000000	59.535974	-4.781781E-5
825.000000	59.754317	-4.728662E-5
826.000000	59.605825	-4.712175E-5
827.000000	59.767254	-4.599583E-5
828.000000	60.703013	-4.592318E-5
829.000000	61.101166	-4.607110E-5
830.000000	60.783929	-4.652758E-5
831.000000	60.494673	-4.793663E-5
832.000000	59.909326	-4.798599E-5
833.000000	59.888852	-4.677997E-5
834.000000	60.304956	-4.670241E-5
835.000000	60.499241	-4.708469E-5
836.000000	60.568025	-4.782506E-5
837.000000	60.301652	-4.892679E-5
838.000000	59.763571	-4.869481E-5
839.000000	59.916444	-4.812250E-5
840.000000	59.768377	-4.731269E-5
841.000000	59.942617	-4.581441E-5
842.000000	60.421219	-4.464522E-5
843.000000	60.798269	-4.415028E-5
844.000000	61.215504	-4.370836E-5
845.000000	61.204659	-4.390444E-5
846.000000	61.035975	-4.365677E-5
847.000000	60.938881	-4.307071E-5
848.000000	60.788225	-4.286654E-5
849.000000	60.987744	-4.196722E-5
850.000000	61.352824	-4.106108E-5
851.000000	61.782341	-4.097742E-5
852.000000	61.625996	-4.030141E-5
853.000000	61.437552	-3.977194E-5
854.000000	61.232063	-3.941596E-5
855.000000	61.310828	-3.858816E-5
856.000000	61.772464	-3.728977E-5
857.000000	62.118249	-3.610883E-5
858.000000	62.396545	-3.580236E-5
859.000000	62.287627	-3.599058E-5
860.000000	61.988252	-3.524359E-5
861.000000	62.099882	-3.429392E-5
862.000000	61.987680	-3.366730E-5
863.000000	62.225930	-3.316896E-5
864.000000	62.507399	-3.271312E-5
865.000000	62.233135	-3.233535E-5
866.000000	61.855469	-3.135842E-5
867.000000	62.081921	-3.080886E-5
868.000000	62.117978	-3.025514E-5
869.000000	61.982262	-2.877521E-5
870.000000	62.552395	-2.813560E-5
871.000000	62.533707	-2.791900E-5
872.000000	62.375348	-2.731234E-5
873.000000	62.704843	-2.714280E-5
874.000000	62.736902	-2.686414E-5
875.000000	62.761772	-2.627244E-5
876.000000	62.541819	-2.604731E-5
877.000000	62.508237	-2.587816E-5
878.000000	62.493881	-2.548918E-5
879.000000	62.292179	-2.490601E-5
880.000000	62.271575	-2.434629E-5
881.000000	62.531722	-2.423527E-5
882.000000	62.273620	-2.395327E-5
883.000000	62.349635	-2.347466E-5
884.000000	62.513244	-2.318729E-5
885.000000	62.505968	-2.301637E-5
886.000000	62.534639	-2.282155E-5
887.000000	62.303972	-2.259174E-5
888.000000	62.405357	-2.235477E-5
889.000000	62.647081	-2.231186E-5
890.000000	62.600284	-2.237013E-5
891.000000	62.389426	-2.217166E-5
892.000000	62.760580	-2.171086E-5
893.000000	62.903827	-2.101416E-5
894.000000	63.451196	-2.091133E-5
895.000000	63.460780	-2.099658E-5
896.000000	63.503736	-2.102912E-5
897.000000	63.628057	-2.102353E-5
898.000000	63.786325	-2.092097E-5
899.000000	63.506712	-2.090303E-5
900.000000	63.192819	-2.115046E-5
901.000000	63.040238	-2.119928E-5
902.000000	63.153353	-2.148658E-5
903.000000	63.233132	-2.189698E-5
904.000000	63.107621	-2.227087E-5
905.000000	63.032153	-2.279855E-5
906.000000	62.518570	-2.227281E-5
907.000000	63.050583	-2.165113E-5
908.000000	62.976334	-2.138047E-5
909.000000	63.227358	-2.131705E-5
910.000000	63.653870	-2.155954E-5
911.000000	63.829578	-2.198707E-5
912.000000	63.682578	-2.213127E-5
913.000000	63.585318	-2.230666E-5
914.000000	63.138737	-2.204823E-5
915.000000	63.128409	-2.153963E-5
916.000000	63.237737	-2.134953E-5
917.000000	63.273765	-2.150798E-5
918.000000	63.508513	-2.220541E-5
919.000000	62.961470	-2.246388E-5
920.000000	63.113016	-2.237852E-5
921.000000	63.140103	-2.228550E-5
922.000000	62.645835	-2.176253E-5
923.000000	62.549454	-2.134648E-5
924.000000	62.812306	-2.151983E-5
925.000000	62.763036	-2.158200E-5
926.000000	62.692932	-2.193243E-5
927.000000	62.326599	-2.217301E-5
928.000000	62.159400	-2.175771E-5
929.000000	62.059515	-2.138619E-5
930.000000	61.699060	-2.088750E-5
931.000000	61.735519	-2.056946E-5
932.000000	61.616667	-2.094938E-5
933.000000	61.423208	-2.117258E-5
934.000000	61.371067	-2.138969E-5
935.000000	61.012085	-2.142403E-5
936.000000	60.698131	-2.088654E-5
937.000000	60.521124	-2.054532E-5
938.000000	60.249106	-2.016581E-5
939.000000	60.698203	-1.995581E-5
940.000000	60.877095	-2.021426E-5
941.000000	60.654798	-2.028662E-5
942.000000	60.552632	-2.026780E-5
943.000000	60.246969	-2.015928E-5
944.000000	59.931501	-1.968292E-5
945.000000	59.868525	-1.952335E-5
946.000000	59.688617	-1.960427E-5
947.000000	59.599857	-1.965272E-5
948.000000	59.459853	-1.986502E-5
949.000000	59.208758	-1.983293E-5
950.000000	58.930545	-1.961179E-5
951.000000	58.821257	-1.951548E-5
952.000000	58.753537	-1.903071E-5
953.000000	58.961123	-1.876572E-5
954.000000	59.050734	-1.873351E-5
955.000000	58.962318	-1.862986E-5
956.000000	58.980763	-1.873776E-5
957.000000	58.664022	-1.869821E-5
958.000000	58.420418	-1.858972E-5
959.000000	58.196157	-1.858480E-5
960.000000	58.011973	-1.839249E-5
961.000000	57.923352	-1.831146E-5
962.000000	57.852221	-1.831512E-5
963.000000	57.845964	-1.813674E-5
964.000000	57.913449	-1.813663E-5
965.000000	57.664625	-1.792894E-5
966.000000	57.525112	-1.757644E-5
967.000000	57.639575	-1.744864E-5
968.000000	57.676246	-1.720059E-5
969.000000	57.763800	-1.697068E-5
970.000000	57.616808	-1.692544E-5
971.000000	57.287250	-1.688653E-5
972.000000	56.922561	-1.700647E-5
973.000000	56.687631	-1.695417E-5
974.000000	56.367009	-1.671888E-5
975.000000	56.197143	-1.663863E-5
976.000000	56.114319	-1.638592E-5
977.000000	56.168934	-1.617172E-5
978.000000	56.144069	-1.604790E-5
979.000000	55.944954	-1.572364E-5
980.000000	55.960295	-1.545941E-5
981.000000	55.904529	-1.528456E-5
982.000000	55.781030	-1.507966E-5
983.000000	55.704513	-1.496454E-5
984.000000	55.406159	-1.486789E-5
985.000000	55.080256	-1.482091E-5
986.000000	54.728810	-1.481173E-5
987.000000	54.223999	-1.473551E-5
988.000000	53.903067	-1.481908E-5
989.000000	53.660313	-1.484969E-5
990.000000	53.431749	-1.461293E-5
991.000000	53.278798	-1.437124E-5
992.000000	53.148363	-1.410437E-5
993.000000	53.032262	-1.383665E-5
994.000000	52.919571	-1.358064E-5
995.000000	52.790198	-1.331418E-5
996.000000	52.725492	-1.322579E-5
997.000000	52.374779	-1.321318E-5
998.000000	51.921976	-1.306500E-5
999.000000	51.542685	-1.302659E-5
1000.000000	51.051884	-1.306714E-5
1001.000000	50.583322	-1.314216E-5
1002.000000	50.147064	-1.327050E-5
1003.000000	49.733333	-1.327010E-5
1004.000000	49.536153	-1.315125E-5
1005.000000	49.455604	-1.297353E-5
1006.000000	49.190467	-1.271224E-5
1007.000000	49.052086	-1.260433E-5
1008.000000	48.695304	-1.256428E-5
1009.000000	48.546611	-1.244627E-5
1010.000000	48.406059	-1.243058E-5
1011.000000	48.125192	-1.237149E-5
1012.000000	47.682671	-1.225318E-5
1013.000000	47.260453	-1.221584E-5
1014.000000	46.898215	-1.219490E-5
1015.000000	46.277362	-1.215114E-5
1016.000000	45.974955	-1.216463E-5
1017.000000	45.336874	-1.214280E-5
1018.000000	44.880749	-1.224252E-5
1019.000000	44.218384	-1.215808E-5
1020.000000	43.832172	-1.203152E-5
1021.000000	43.531810	-1.203629E-5
1022.000000	43.068672	-1.209360E-5
1023.000000	42.608119	-1.221652E-5
1024.000000	42.064334	-1.241175E-5
1025.000000	41.432564	-1.263771E-5
1026.000000	40.795954	-1.285589E-5
1027.000000	40.245680	-1.298225E-5
1028.000000	39.759966	-1.301605E-5
1029.000000	39.293022	-1.294400E-5
1030.000000	38.949479	-1.284487E-5
1031.000000	38.773248	-1.273983E-5
1032.000000	38.699890	-1.252521E-5
1033.000000	38.677379	-1.234280E-5
1034.000000	38.485552	-1.223369E-5
1035.000000	38.023908	-1.221250E-5
1036.000000	37.507920	-1.216393E-5
1037.000000	36.736968	-1.192538E-5
1038.000000	36.237916	-1.174863E-5
1039.000000	35.699129	-1.178227E-5
1040.000000	35.323855	-1.189812E-5
1041.000000	35.172440	-1.169224E-5
1042.000000	34.755650	-1.118405E-5
1043.000000	34.412995	-1.077426E-5
1044.000000	34.104070	-1.053102E-5
1045.000000	33.939601	-1.039982E-5
1046.000000	33.614929	-1.029994E-5
1047.000000	33.328371	-1.030914E-5
1048.000000	32.878804	-1.029823E-5
1049.000000	32.455626	-1.027666E-5
1050.000000	31.918752	-1.038750E-5
1051.000000	31.377545	-1.060859E-5
1052.000000	30.948634	-1.087121E-5
1053.000000	30.422568	-1.125584E-5
1054.000000	30.122215	-1.161074E-5
1055.000000	29.830120	-1.188268E-5
1056.000000	29.673221	-1.225061E-5
1057.000000	29.269488	-1.269574E-5
1058.000000	28.827421	-1.329090E-5
1059.000000	28.621671	-1.423099E-5
1060.000000	28.288703	-1.555538E-5
1061.000000	28.068853	-1.766876E-5
1062.000000	27.759595	-2.046897E-5
1063.000000	28.468486	-2.671809E-5
1064.000000	29.941494	-4.831567E-5
1065.000000	27.647641	-7.140418E-5
1066.000000	24.606673	-5.896217E-5
1067.000000	22.998328	-3.181267E-5
1068.000000	21.725507	-2.189573E-5
1069.000000	19.682338	-1.850583E-5
1070.000000	19.491407	-1.487130E-5
1071.000000	21.406472	-1.219857E-5
1072.000000	22.971630	-1.036616E-5
1073.000000	21.523003	-8.834471E-6
1074.000000	20.854251	-7.910101E-6
1075.000000	20.533558	-7.323961E-6
1076.000000	20.461714	-6.910085E-6
1077.000000	20.281900	-6.518778E-6
1078.000000	19.812546	-6.125144E-6
1079.000000	19.074178	-5.743451E-6
1080.000000	18.182195	-5.391208E-6
1081.000000	17.466411	-5.058902E-6
1082.000000	17.172194	-4.871168E-6
1083.000000	17.012819	-4.731982E-6
1084.000000	16.693805	-4.509282E-6
1085.000000	16.209889	-4.289385E-6
1086.000000	15.891511	-4.132406E-6
1087.000000	15.360172	-3.933489E-6
1088.000000	14.871497	-3.762600E-6
1089.000000	14.635723	-3.694872E-6
1090.000000	14.357054	-3.596755E-6
1091.000000	14.021735	-3.445934E-6
1092.000000	13.625561	-3.296484E-6
1093.000000	13.116646	-3.154002E-6
1094.000000	12.611674	-3.066984E-6
1095.000000	12.212098	-2.972955E-6
1096.000000	12.090954	-2.891190E-6
1097.000000	11.853203	-2.837418E-6
1098.000000	11.422402	-2.735895E-6
1099.000000	11.148236	-2.736502E-6
1100.000000	10.862619	-2.732554E-6
