Wavelength (nm)	EQE (%)	Current (A)	Dark Current (A) -> 	-17.593713507E-12	
400.000000	25.881962	-3.261887E-7
401.000000	28.074744	-5.439314E-7
402.000000	28.702308	-7.645448E-7
403.000000	28.443674	-1.209915E-6
404.000000	27.921842	-1.645028E-6
405.000000	27.979703	-1.995239E-6
406.000000	28.448541	-2.405860E-6
407.000000	29.269894	-2.409324E-6
408.000000	29.922427	-2.961819E-6
409.000000	30.586571	-2.903112E-6
410.000000	30.901226	-3.407024E-6
411.000000	31.634297	-4.155702E-6
412.000000	32.048023	-4.783272E-6
413.000000	32.006746	-5.318963E-6
414.000000	32.555190	-5.515611E-6
415.000000	32.540356	-6.340435E-6
416.000000	33.400747	-6.177939E-6
417.000000	33.852826	-4.142891E-6
418.000000	34.349172	-2.822919E-6
419.000000	34.765643	-2.650269E-6
420.000000	34.381379	-2.420514E-6
421.000000	34.504818	-2.423127E-6
422.000000	35.145766	-2.454051E-6
423.000000	35.409730	-2.696371E-6
424.000000	36.156944	-3.003225E-6
425.000000	35.647932	-3.072065E-6
426.000000	36.715650	-3.279667E-6
427.000000	37.389764	-3.636276E-6
428.000000	37.326518	-3.793161E-6
429.000000	36.952935	-3.518095E-6
430.000000	37.920199	-3.967394E-6
431.000000	39.837645	-4.178778E-6
432.000000	39.410788	-4.189055E-6
433.000000	39.568378	-4.101408E-6
434.000000	39.555072	-4.983176E-6
435.000000	40.957579	-6.046016E-6
436.000000	40.582771	-5.651125E-6
437.000000	40.129265	-5.145872E-6
438.000000	41.610304	-6.184414E-6
439.000000	43.323380	-7.554760E-6
440.000000	42.659051	-6.870805E-6
441.000000	42.683907	-5.322492E-6
442.000000	41.932221	-5.465792E-6
443.000000	44.439614	-7.240247E-6
444.000000	44.982402	-7.527767E-6
445.000000	45.098593	-7.543224E-6
446.000000	45.522110	-7.501431E-6
447.000000	46.116903	-6.994810E-6
448.000000	47.115525	-6.223437E-6
449.000000	46.230429	-6.505099E-6
450.000000	48.360316	-7.377224E-6
451.000000	46.061658	-7.323389E-6
452.000000	44.719526	-8.373023E-6
453.000000	46.914291	-9.490379E-6
454.000000	48.121217	-9.026628E-6
455.000000	49.592626	-7.660021E-6
456.000000	49.802320	-8.708255E-6
457.000000	50.552190	-1.071791E-5
458.000000	50.155571	-1.138576E-5
459.000000	49.847615	-1.219093E-5
460.000000	50.940688	-1.194209E-5
461.000000	52.218994	-9.329318E-6
462.000000	51.178282	-7.211479E-6
463.000000	51.044863	-7.453438E-6
464.000000	50.024482	-8.509531E-6
465.000000	49.586545	-8.146493E-6
466.000000	49.955533	-8.028846E-6
467.000000	50.814060	-9.387838E-6
468.000000	50.462758	-9.510168E-6
469.000000	50.843976	-8.366031E-6
470.000000	52.733604	-8.509076E-6
471.000000	51.704054	-8.280897E-6
472.000000	49.099041	-9.266849E-6
473.000000	52.776689	-1.014899E-5
474.000000	54.509897	-9.126087E-6
475.000000	52.452825	-7.718370E-6
476.000000	52.008460	-9.184890E-6
477.000000	54.207820	-8.037999E-6
478.000000	54.314687	-7.636500E-6
479.000000	54.449923	-9.274088E-6
480.000000	52.703888	-9.366372E-6
481.000000	51.290244	-8.316077E-6
482.000000	53.327163	-1.189950E-5
483.000000	54.635272	-1.195348E-5
484.000000	54.497615	-8.385738E-6
485.000000	54.935911	-8.628779E-6
486.000000	55.335782	-9.948283E-6
487.000000	56.274727	-7.892256E-6
488.000000	59.902946	-7.238701E-6
489.000000	60.992503	-7.085424E-6
490.000000	61.332672	-8.021282E-6
491.000000	61.571114	-8.981798E-6
492.000000	63.287660	-9.286606E-6
493.000000	64.227573	-8.773719E-6
494.000000	63.831290	-9.455553E-6
495.000000	64.226422	-9.948727E-6
496.000000	64.141256	-1.035821E-5
497.000000	62.588389	-1.054104E-5
498.000000	62.805200	-1.133449E-5
499.000000	65.814106	-1.298718E-5
500.000000	67.746069	-1.288722E-5
501.000000	67.079346	-1.228713E-5
502.000000	67.475820	-1.208090E-5
503.000000	70.280044	-1.259078E-5
504.000000	70.367695	-1.175180E-5
505.000000	66.775596	-1.260955E-5
506.000000	67.438509	-1.393718E-5
507.000000	69.090844	-1.338757E-5
508.000000	65.154397	-1.121521E-5
509.000000	62.751554	-1.402456E-5
510.000000	63.498739	-1.606471E-5
511.000000	60.920875	-1.406424E-5
512.000000	65.638407	-1.697596E-5
513.000000	67.495574	-1.751635E-5
514.000000	65.457222	-1.764172E-5
515.000000	69.513520	-2.413817E-5
516.000000	69.790932	-2.901979E-5
517.000000	70.197546	-3.015016E-5
518.000000	75.223591	-3.029851E-5
519.000000	71.775264	-2.641403E-5
520.000000	71.918776	-2.988768E-5
521.000000	72.369425	-2.893681E-5
522.000000	70.447889	-1.651472E-5
523.000000	72.852660	-1.853967E-5
524.000000	71.886431	-2.126271E-5
525.000000	70.308333	-1.962221E-5
526.000000	71.825217	-2.576487E-5
527.000000	73.579464	-3.396224E-5
528.000000	74.664628	-3.848546E-5
529.000000	73.904957	-3.838077E-5
530.000000	74.094641	-3.505261E-5
531.000000	73.692172	-2.918541E-5
532.000000	73.062049	-2.715052E-5
533.000000	73.908587	-1.678519E-5
534.000000	73.986487	-1.638129E-5
535.000000	75.754581	-2.560307E-5
536.000000	73.890543	-2.704780E-5
537.000000	75.906770	-3.372093E-5
538.000000	77.875562	-4.080984E-5
539.000000	77.184530	-3.683816E-5
540.000000	78.258162	-3.640399E-5
541.000000	78.891264	-2.834615E-5
542.000000	81.975013	-1.939082E-5
543.000000	83.336084	-2.500662E-5
544.000000	82.317819	-2.242389E-5
545.000000	80.900705	-2.878439E-5
546.000000	80.508993	-3.838242E-5
547.000000	80.616111	-3.145248E-5
548.000000	82.190046	-3.316512E-5
549.000000	83.383795	-3.476534E-5
550.000000	84.261442	-2.506338E-5
551.000000	85.188450	-2.508124E-5
552.000000	84.940034	-3.175557E-5
553.000000	87.057992	-3.500840E-5
554.000000	83.263439	-4.546118E-5
555.000000	83.104488	-4.990725E-5
556.000000	82.657477	-5.444489E-5
557.000000	83.354749	-4.703242E-5
558.000000	86.385852	-3.373936E-5
559.000000	84.672023	-3.793425E-5
560.000000	86.948702	-3.722625E-5
561.000000	87.920734	-3.634270E-5
562.000000	84.677510	-4.809106E-5
563.000000	84.952841	-5.143051E-5
564.000000	87.884463	-4.444169E-5
565.000000	88.334924	-4.212336E-5
566.000000	92.768681	-3.521117E-5
567.000000	92.028814	-3.573123E-5
568.000000	91.719650	-4.423534E-5
569.000000	90.230769	-4.745233E-5
570.000000	89.401162	-6.046749E-5
571.000000	91.736625	-5.344856E-5
572.000000	90.581015	-4.884249E-5
573.000000	94.074384	-4.116436E-5
574.000000	96.333375	-3.257935E-5
575.000000	94.210982	-4.104370E-5
576.000000	93.328275	-5.073721E-5
577.000000	91.956074	-6.518849E-5
578.000000	86.989436	-7.493292E-5
579.000000	88.294772	-7.465920E-5
580.000000	89.546416	-6.400825E-5
581.000000	92.151749	-5.281146E-5
582.000000	94.379962	-4.147646E-5
583.000000	93.080637	-4.664393E-5
584.000000	93.045544	-5.505351E-5
585.000000	90.780331	-6.910889E-5
586.000000	89.751418	-7.524858E-5
587.000000	90.566391	-6.880735E-5
588.000000	92.490932	-6.240524E-5
589.000000	94.479653	-5.073809E-5
590.000000	95.886246	-4.521843E-5
591.000000	88.429152	-5.879072E-5
592.000000	89.166202	-5.898713E-5
593.000000	90.648520	-6.309228E-5
594.000000	89.631310	-6.696262E-5
595.000000	88.333640	-6.811074E-5
596.000000	86.892446	-6.857193E-5
597.000000	86.529140	-6.594245E-5
598.000000	87.246796	-6.340500E-5
599.000000	88.913308	-6.384413E-5
600.000000	89.274097	-6.430155E-5
601.000000	89.958158	-6.771009E-5
602.000000	89.203566	-7.013754E-5
603.000000	88.285540	-7.251842E-5
604.000000	89.382128	-7.645015E-5
605.000000	89.694825	-7.759372E-5
606.000000	89.843513	-8.206457E-5
607.000000	87.658703	-8.297757E-5
608.000000	85.787005	-7.907592E-5
609.000000	83.869321	-7.465516E-5
610.000000	82.447229	-6.548061E-5
611.000000	83.552634	-5.857649E-5
612.000000	87.051790	-5.865923E-5
613.000000	91.529586	-6.445211E-5
614.000000	94.025569	-7.546801E-5
615.000000	92.003014	-8.483764E-5
616.000000	89.096893	-9.208252E-5
617.000000	85.497132	-9.181808E-5
618.000000	81.956199	-8.255705E-5
619.000000	80.220602	-7.376353E-5
620.000000	79.328893	-6.433342E-5
621.000000	82.701669	-5.930605E-5
622.000000	88.520670	-6.181485E-5
623.000000	92.414117	-7.052840E-5
624.000000	92.869683	-8.179126E-5
625.000000	90.814510	-8.592056E-5
626.000000	86.930096	-9.255503E-5
627.000000	85.274193	-9.388302E-5
628.000000	84.242384	-8.951974E-5
629.000000	84.884756	-8.477675E-5
630.000000	85.167252	-8.072997E-5
631.000000	85.506823	-7.655104E-5
632.000000	86.543358	-7.436003E-5
633.000000	86.777581	-7.323807E-5
634.000000	87.656978	-7.404566E-5
635.000000	88.127878	-7.650778E-5
636.000000	88.174677	-7.887338E-5
637.000000	87.661012	-8.252849E-5
638.000000	86.656506	-8.477098E-5
639.000000	85.595990	-8.514820E-5
640.000000	85.337621	-8.472826E-5
641.000000	85.295163	-7.985287E-5
642.000000	86.694848	-7.800320E-5
643.000000	86.884459	-7.753225E-5
644.000000	87.534260	-7.855941E-5
645.000000	87.063554	-8.225400E-5
646.000000	85.290665	-8.272814E-5
647.000000	84.732727	-8.406464E-5
648.000000	83.617522	-8.229173E-5
649.000000	83.925930	-7.655935E-5
650.000000	85.076315	-7.352210E-5
651.000000	86.915739	-7.328178E-5
652.000000	87.740449	-7.609358E-5
653.000000	86.839781	-7.852474E-5
654.000000	85.892512	-8.109858E-5
655.000000	84.467955	-8.239717E-5
656.000000	83.050234	-7.631618E-5
657.000000	84.508164	-7.291651E-5
658.000000	85.212843	-7.202639E-5
659.000000	85.746182	-7.083736E-5
660.000000	87.393809	-7.479640E-5
661.000000	86.086000	-7.816837E-5
662.000000	84.761460	-7.900517E-5
663.000000	84.357980	-8.076285E-5
664.000000	83.334282	-7.794166E-5
665.000000	82.906764	-7.103250E-5
666.000000	84.203831	-6.721650E-5
667.000000	85.992037	-6.672420E-5
668.000000	86.083603	-6.743656E-5
669.000000	86.260091	-7.088912E-5
670.000000	85.727318	-7.608865E-5
671.000000	83.328247	-7.592964E-5
672.000000	82.671844	-7.255971E-5
673.000000	83.474148	-7.193007E-5
674.000000	82.525346	-6.784481E-5
675.000000	84.239507	-6.626379E-5
676.000000	84.863866	-7.021454E-5
677.000000	83.645599	-7.185637E-5
678.000000	83.256141	-7.559401E-5
679.000000	82.101940	-7.679142E-5
680.000000	81.005478	-7.048147E-5
681.000000	82.203221	-6.740110E-5
682.000000	82.727721	-6.832649E-5
683.000000	82.681859	-6.963235E-5
684.000000	82.575704	-7.221607E-5
685.000000	81.882968	-7.782754E-5
686.000000	80.083350	-7.769404E-5
687.000000	78.654059	-7.088818E-5
688.000000	80.670509	-7.249382E-5
689.000000	79.833194	-7.516716E-5
690.000000	80.411293	-7.532571E-5
691.000000	81.900127	-7.978408E-5
692.000000	81.213950	-8.270009E-5
693.000000	80.539112	-8.092058E-5
694.000000	80.474917	-7.544241E-5
695.000000	80.814917	-6.895462E-5
696.000000	81.148433	-6.653148E-5
697.000000	82.357945	-6.968401E-5
698.000000	82.168973	-7.585625E-5
699.000000	81.226811	-8.075733E-5
700.000000	80.526985	-8.144793E-5
701.000000	80.607298	-8.082496E-5
702.000000	80.703018	-7.587425E-5
703.000000	81.750902	-7.107188E-5
704.000000	83.504443	-7.753963E-5
705.000000	82.637789	-8.426723E-5
706.000000	80.786983	-8.351525E-5
707.000000	80.735709	-8.477017E-5
708.000000	80.783838	-8.664333E-5
709.000000	79.174758	-7.659962E-5
710.000000	79.212425	-6.512302E-5
711.000000	83.502927	-7.462423E-5
712.000000	83.214183	-9.129719E-5
713.000000	81.897305	-9.432053E-5
714.000000	80.708637	-8.762956E-5
715.000000	80.153363	-7.764414E-5
716.000000	82.063591	-7.286003E-5
717.000000	83.495684	-7.325544E-5
718.000000	84.136472	-7.396836E-5
719.000000	84.692025	-7.829459E-5
720.000000	83.458995	-8.017329E-5
721.000000	83.008387	-8.150642E-5
722.000000	82.289822	-8.155580E-5
723.000000	81.882269	-7.477861E-5
724.000000	83.807405	-7.007027E-5
725.000000	85.147179	-7.165257E-5
726.000000	85.440014	-7.505504E-5
727.000000	85.645071	-7.845593E-5
728.000000	84.165247	-7.969596E-5
729.000000	83.507231	-7.827809E-5
730.000000	83.870580	-7.459762E-5
731.000000	84.654590	-7.072003E-5
732.000000	86.239999	-7.008899E-5
733.000000	86.723034	-7.320682E-5
734.000000	86.247102	-7.818527E-5
735.000000	85.003619	-7.993160E-5
736.000000	84.186278	-7.781559E-5
737.000000	84.671907	-7.628367E-5
738.000000	84.840092	-7.217693E-5
739.000000	86.469296	-7.032303E-5
740.000000	87.461408	-7.362526E-5
741.000000	86.697700	-7.608097E-5
742.000000	85.953568	-7.926559E-5
743.000000	84.542593	-7.789765E-5
744.000000	84.482697	-7.331574E-5
745.000000	85.140401	-7.139494E-5
746.000000	85.525734	-7.005903E-5
747.000000	86.311217	-7.025911E-5
748.000000	86.683240	-7.358965E-5
749.000000	86.328744	-7.632217E-5
750.000000	85.427188	-7.589274E-5
751.000000	84.888768	-7.418352E-5
752.000000	85.156957	-7.072199E-5
753.000000	86.122234	-6.865351E-5
754.000000	86.462237	-6.862059E-5
755.000000	86.117329	-6.961349E-5
756.000000	86.620863	-7.435030E-5
757.000000	85.068022	-7.596004E-5
758.000000	84.130684	-7.386766E-5
759.000000	84.240916	-7.250793E-5
760.000000	84.246906	-7.092875E-5
761.000000	84.245585	-6.788799E-5
762.000000	85.104507	-6.799443E-5
763.000000	84.996311	-7.084406E-5
764.000000	84.152379	-7.269489E-5
765.000000	83.784849	-7.297332E-5
766.000000	82.948778	-7.027765E-5
767.000000	83.363775	-6.837749E-5
768.000000	83.770980	-6.844612E-5
769.000000	83.723988	-6.867059E-5
770.000000	83.743659	-6.904878E-5
771.000000	83.828919	-7.029292E-5
772.000000	83.425966	-7.142503E-5
773.000000	82.681227	-7.145637E-5
774.000000	82.263912	-7.079323E-5
775.000000	82.525356	-6.922792E-5
776.000000	82.660836	-6.797050E-5
777.000000	83.228848	-6.913669E-5
778.000000	83.113259	-7.137864E-5
779.000000	82.545464	-7.355531E-5
780.000000	81.713707	-7.385028E-5
781.000000	81.150506	-7.262603E-5
782.000000	81.270386	-7.074989E-5
783.000000	81.476060	-6.886515E-5
784.000000	82.049784	-6.845901E-5
785.000000	81.985041	-6.938091E-5
786.000000	81.771024	-7.223105E-5
787.000000	81.297000	-7.392246E-5
788.000000	80.614710	-7.413214E-5
789.000000	80.279310	-7.261075E-5
790.000000	80.463693	-7.054980E-5
791.000000	80.646628	-7.012596E-5
792.000000	80.776120	-7.088186E-5
793.000000	80.384005	-7.290928E-5
794.000000	79.595282	-7.448515E-5
795.000000	79.139235	-7.504414E-5
796.000000	78.388584	-7.339126E-5
797.000000	77.952558	-7.030560E-5
798.000000	78.700751	-6.924647E-5
799.000000	78.863735	-6.832764E-5
800.000000	79.042264	-6.955366E-5
801.000000	78.566705	-7.146888E-5
802.000000	77.916285	-7.179460E-5
803.000000	77.253028	-7.026467E-5
804.000000	77.398112	-6.748081E-5
805.000000	77.857852	-6.517409E-5
806.000000	78.171224	-6.497840E-5
807.000000	77.683523	-6.499881E-5
808.000000	77.543733	-6.622721E-5
809.000000	76.949556	-6.720705E-5
810.000000	76.222795	-6.557284E-5
811.000000	76.268755	-6.424153E-5
812.000000	76.241858	-6.301935E-5
813.000000	76.848767	-6.151622E-5
814.000000	77.265378	-6.163257E-5
815.000000	77.019386	-6.213921E-5
816.000000	76.817129	-6.319316E-5
817.000000	75.570092	-6.403753E-5
818.000000	75.115467	-6.182558E-5
819.000000	75.597113	-5.991486E-5
820.000000	75.752112	-6.006392E-5
821.000000	75.602853	-6.001387E-5
822.000000	75.489374	-6.114701E-5
823.000000	74.691079	-6.146433E-5
824.000000	74.508851	-5.984365E-5
825.000000	74.745454	-5.914987E-5
826.000000	74.332366	-5.876391E-5
827.000000	74.630562	-5.743437E-5
828.000000	75.350245	-5.700413E-5
829.000000	75.495354	-5.692451E-5
830.000000	75.463344	-5.776406E-5
831.000000	74.663432	-5.916411E-5
832.000000	73.652276	-5.899378E-5
833.000000	73.507558	-5.741772E-5
834.000000	73.841984	-5.718599E-5
835.000000	73.651497	-5.732068E-5
836.000000	73.122144	-5.773791E-5
837.000000	72.449635	-5.878327E-5
838.000000	71.508339	-5.826434E-5
839.000000	71.229617	-5.720879E-5
840.000000	70.627514	-5.590879E-5
841.000000	70.613125	-5.396993E-5
842.000000	71.125428	-5.255456E-5
843.000000	71.123447	-5.164819E-5
844.000000	71.418835	-5.099362E-5
845.000000	71.151079	-5.103939E-5
846.000000	70.573800	-5.047883E-5
847.000000	70.166370	-4.959256E-5
848.000000	69.513229	-4.901922E-5
849.000000	69.214635	-4.762835E-5
850.000000	69.041574	-4.620686E-5
851.000000	69.034278	-4.578730E-5
852.000000	68.417199	-4.474263E-5
853.000000	67.795444	-4.388776E-5
854.000000	67.302799	-4.332378E-5
855.000000	66.765613	-4.202132E-5
856.000000	66.452854	-4.011515E-5
857.000000	66.523719	-3.866969E-5
858.000000	66.343627	-3.806715E-5
859.000000	65.393230	-3.778503E-5
860.000000	64.438737	-3.663682E-5
861.000000	63.771860	-3.521725E-5
862.000000	63.170451	-3.430969E-5
863.000000	62.334902	-3.322705E-5
864.000000	61.958433	-3.242582E-5
865.000000	60.936540	-3.166166E-5
866.000000	59.951667	-3.039326E-5
867.000000	59.321568	-2.943901E-5
868.000000	58.489002	-2.848762E-5
869.000000	57.334986	-2.661771E-5
870.000000	56.783898	-2.554097E-5
871.000000	55.650110	-2.484573E-5
872.000000	54.869677	-2.402582E-5
873.000000	54.130812	-2.343139E-5
874.000000	53.278182	-2.281388E-5
875.000000	52.098707	-2.180882E-5
876.000000	50.991427	-2.123682E-5
877.000000	50.041859	-2.071713E-5
878.000000	49.159236	-2.005042E-5
879.000000	47.941056	-1.916806E-5
880.000000	46.993256	-1.837293E-5
881.000000	46.021134	-1.783630E-5
882.000000	44.863013	-1.725636E-5
883.000000	43.731255	-1.646483E-5
884.000000	42.822899	-1.588378E-5
885.000000	41.741061	-1.537017E-5
886.000000	40.840990	-1.490462E-5
887.000000	39.732376	-1.440716E-5
888.000000	38.767781	-1.388735E-5
889.000000	37.733410	-1.343881E-5
890.000000	36.753961	-1.313398E-5
891.000000	35.698572	-1.268639E-5
892.000000	34.643562	-1.198430E-5
893.000000	34.000651	-1.135853E-5
894.000000	33.259784	-1.096128E-5
895.000000	32.127029	-1.062952E-5
896.000000	31.246847	-1.034732E-5
897.000000	30.341860	-1.002534E-5
898.000000	29.300997	-9.610295E-6
899.000000	28.393990	-9.345790E-6
900.000000	27.370427	-9.160805E-6
901.000000	26.421316	-8.885004E-6
902.000000	25.678287	-8.736489E-6
903.000000	24.839763	-8.601752E-6
904.000000	23.999693	-8.469565E-6
905.000000	23.041418	-8.334014E-6
906.000000	22.157027	-7.893641E-6
907.000000	21.558980	-7.403203E-6
908.000000	20.881188	-7.089164E-6
909.000000	20.122275	-6.784209E-6
910.000000	19.584064	-6.633115E-6
911.000000	18.881781	-6.504118E-6
912.000000	18.181959	-6.318681E-6
913.000000	17.517447	-6.145377E-6
914.000000	16.754507	-5.850722E-6
915.000000	16.059497	-5.479556E-6
916.000000	15.539722	-5.246326E-6
917.000000	15.014535	-5.103731E-6
918.000000	14.464233	-5.057342E-6
919.000000	13.842068	-4.938681E-6
920.000000	13.215762	-4.686026E-6
921.000000	12.730878	-4.493403E-6
922.000000	12.176150	-4.229872E-6
923.000000	11.694390	-3.990988E-6
924.000000	11.268239	-3.860559E-6
925.000000	10.815632	-3.719116E-6
926.000000	10.367950	-3.627112E-6
927.000000	9.900462	-3.522140E-6
928.000000	9.468459	-3.314253E-6
929.000000	9.031314	-3.112261E-6
930.000000	8.630742	-2.921838E-6
931.000000	8.292042	-2.762799E-6
932.000000	7.928081	-2.695511E-6
933.000000	7.551069	-2.602853E-6
934.000000	7.206451	-2.511668E-6
935.000000	6.851900	-2.406004E-6
936.000000	6.544206	-2.251895E-6
937.000000	6.236111	-2.116994E-6
938.000000	5.932120	-1.985523E-6
939.000000	5.685102	-1.869096E-6
940.000000	5.455946	-1.811649E-6
941.000000	5.177813	-1.731773E-6
942.000000	4.921580	-1.647321E-6
943.000000	4.670459	-1.562785E-6
944.000000	4.443006	-1.459188E-6
945.000000	4.236282	-1.381467E-6
946.000000	4.022783	-1.321252E-6
947.000000	3.834616	-1.264443E-6
948.000000	3.647759	-1.218684E-6
949.000000	3.448999	-1.155298E-6
950.000000	3.277583	-1.090763E-6
951.000000	3.108954	-1.031476E-6
952.000000	2.943101	-9.532922E-7
953.000000	2.807846	-8.936609E-7
954.000000	2.674343	-8.484199E-7
955.000000	2.537272	-8.016821E-7
956.000000	2.420483	-7.689699E-7
957.000000	2.284706	-7.282131E-7
958.000000	2.163050	-6.882949E-7
959.000000	2.050347	-6.547734E-7
960.000000	1.937028	-6.141278E-7
961.000000	1.839393	-5.814920E-7
962.000000	1.743405	-5.519350E-7
963.000000	1.653836	-5.185358E-7
964.000000	1.569878	-4.916354E-7
965.000000	1.483462	-4.612341E-7
966.000000	1.400198	-4.278217E-7
967.000000	1.333604	-4.037082E-7
968.000000	1.260144	-3.758083E-7
969.000000	1.196959	-3.516600E-7
970.000000	1.135520	-3.335688E-7
971.000000	1.074235	-3.166518E-7
972.000000	1.011345	-3.021546E-7
973.000000	0.954646	-2.855162E-7
974.000000	0.904214	-2.681968E-7
975.000000	0.852884	-2.525185E-7
976.000000	0.806988	-2.356483E-7
977.000000	0.767112	-2.208610E-7
978.000000	0.726590	-2.076844E-7
979.000000	0.683717	-1.921624E-7
980.000000	0.650174	-1.796149E-7
981.000000	0.615425	-1.682601E-7
982.000000	0.581480	-1.571952E-7
983.000000	0.550723	-1.479471E-7
984.000000	0.521951	-1.400623E-7
985.000000	0.492906	-1.326305E-7
986.000000	0.465275	-1.259214E-7
987.000000	0.439639	-1.194729E-7
988.000000	0.415393	-1.142001E-7
989.000000	0.392819	-1.087067E-7
990.000000	0.371926	-1.017173E-7
991.000000	0.348331	-9.395766E-8
992.000000	0.332897	-8.834320E-8
993.000000	0.316209	-8.250204E-8
994.000000	0.299086	-7.675384E-8
995.000000	0.283819	-7.158190E-8
996.000000	0.269694	-6.765063E-8
997.000000	0.255152	-6.437003E-8
998.000000	0.240927	-6.062382E-8
999.000000	0.228498	-5.774923E-8
1000.000000	0.216349	-5.537634E-8
1001.000000	0.204293	-5.307786E-8
1002.000000	0.194129	-5.137281E-8
1003.000000	0.183808	-4.904455E-8
1004.000000	0.174264	-4.626492E-8
1005.000000	0.165628	-4.344861E-8
1006.000000	0.157193	-4.062323E-8
1007.000000	0.150096	-3.856829E-8
1008.000000	0.141748	-3.657356E-8
1009.000000	0.135029	-3.461848E-8
1010.000000	0.128670	-3.304231E-8
1011.000000	0.122048	-3.137473E-8
1012.000000	0.116087	-2.983123E-8
1013.000000	0.110547	-2.857406E-8
1014.000000	0.105040	-2.731339E-8
1015.000000	0.099683	-2.617409E-8
1016.000000	0.095097	-2.516197E-8
1017.000000	0.090447	-2.422496E-8
1018.000000	0.086013	-2.346253E-8
1019.000000	0.081744	-2.247590E-8
1020.000000	0.077968	-2.140139E-8
1021.000000	0.074392	-2.056891E-8
1022.000000	0.070752	-1.986699E-8
1023.000000	0.067338	-1.930702E-8
1024.000000	0.064283	-1.896757E-8
1025.000000	0.061474	-1.875058E-8
1026.000000	0.058561	-1.845414E-8
1027.000000	0.055764	-1.798800E-8
1028.000000	0.053128	-1.739231E-8
1029.000000	0.050733	-1.671252E-8
1030.000000	0.048427	-1.597039E-8
1031.000000	0.046507	-1.528105E-8
1032.000000	0.044562	-1.442257E-8
1033.000000	0.042758	-1.364487E-8
1034.000000	0.041073	-1.305622E-8
1035.000000	0.039125	-1.256604E-8
1036.000000	0.037402	-1.212954E-8
1037.000000	0.035667	-1.157793E-8
1038.000000	0.034266	-1.110933E-8
1039.000000	0.032834	-1.083659E-8
1040.000000	0.030997	-1.044076E-8
1041.000000	0.029668	-9.862314E-9
1042.000000	0.028583	-9.197820E-9
1043.000000	0.027650	-8.656971E-9
1044.000000	0.026615	-8.218525E-9
1045.000000	0.021812	-6.683679E-9
1046.000000	0.024759	-7.586347E-9
1047.000000	0.020150	-6.232788E-9
1048.000000	0.022841	-7.154253E-9
1049.000000	0.011893	-3.765667E-9
1050.000000	0.021074	-6.858345E-9
1051.000000	0.020158	-6.815274E-9
1052.000000	0.019355	-6.798634E-9
1053.000000	0.009927	-3.672842E-9
1054.000000	0.017670	-6.810873E-9
1055.000000	0.016939	-6.747638E-9
1056.000000	0.008776	-3.623186E-9
1057.000000	0.013280	-5.760185E-9
1058.000000	0.015061	-6.943822E-9
1059.000000	0.014563	-7.240713E-9
1060.000000	0.014071	-7.737434E-9
1061.000000	0.013686	-8.614951E-9
1062.000000	0.009287	-6.848177E-9
1063.000000	0.013086	-1.228136E-8
1064.000000	0.013200	-2.129992E-8
1065.000000	0.011938	-3.083074E-8
1066.000000	0.010474	-2.509846E-8
1067.000000	0.009563	-1.322798E-8
1068.000000	0.008055	-8.118412E-9
1069.000000	0.007589	-7.135351E-9
1070.000000	0.008464	-6.458044E-9
1071.000000	0.005640	-3.213709E-9
1072.000000	0.008588	-3.875547E-9
1073.000000	0.005580	-2.290492E-9
1074.000000	0.007990	-3.030804E-9
1075.000000	0.005087	-1.814269E-9
1076.000000	0.004934	-1.666353E-9
1077.000000	0.007131	-2.291960E-9
1078.000000	0.006848	-2.117053E-9
1079.000000	0.006602	-1.987968E-9
1080.000000	0.006370	-1.888745E-9
1081.000000	0.005055	-1.464020E-9
1082.000000	0.004933	-1.399357E-9
1083.000000	0.005745	-1.597985E-9
1084.000000	0.005508	-1.487733E-9
1085.000000	0.003438	-9.097246E-10
1086.000000	0.004219	-1.097065E-9
1087.000000	0.004912	-1.257841E-9
1088.000000	0.004724	-1.195189E-9
1089.000000	0.004509	-1.138358E-9
1090.000000	0.003563	-8.926546E-10
1091.000000	0.004191	-1.029870E-9
1092.000000	0.003361	-8.130967E-10
1093.000000	0.002545	-6.119203E-10
1094.000000	0.003079	-7.488750E-10
1095.000000	0.003589	-8.736130E-10
1096.000000	0.003503	-8.376287E-10
1097.000000	0.003389	-8.112592E-10
1098.000000	0.003265	-7.820401E-10
1099.000000	0.003182	-7.809759E-10
1100.000000	0.003120	-7.847966E-10
